Time Pitch Intensity
0.01 --undefined-- --undefined--
0.02 244.381 --undefined--
0.03 249.190 --undefined--
0.04 252.949 --undefined--
0.05 255.972 70.544
0.06 260.014 68.963
0.07 268.538 66.959
0.08 275.283 65.001
0.09 275.344 62.785
0.10 278.228 59.334
0.11 291.478 54.744
0.12 --undefined-- 50.293
0.13 --undefined-- 46.315
0.14 --undefined-- 42.134
0.15 --undefined-- 37.532
0.16 --undefined-- 31.913
0.17 --undefined-- 27.884
0.18 --undefined-- 30.379
0.19 --undefined-- 36.910
0.20 --undefined-- 43.708
0.21 --undefined-- 47.802
0.22 --undefined-- 49.126
0.23 --undefined-- 50.009
0.24 --undefined-- 52.689
0.25 74.878 54.783
0.26 --undefined-- 55.643
0.27 --undefined-- 56.120
0.28 --undefined-- 56.302
0.29 --undefined-- 55.794
0.30 --undefined-- 55.394
0.31 --undefined-- 55.543
0.32 --undefined-- 56.094
0.33 --undefined-- 56.503
0.34 --undefined-- 56.640
0.35 --undefined-- 55.405
0.36 --undefined-- 53.579
0.37 --undefined-- 53.452
0.38 --undefined-- 52.799
0.39 --undefined-- 51.107
0.40 --undefined-- 49.388
0.41 --undefined-- 47.014
0.42 --undefined-- 43.810
0.43 --undefined-- 39.102
0.44 --undefined-- 32.639
0.45 --undefined-- 28.127
0.46 --undefined-- 27.005
0.47 --undefined-- 27.227
0.48 --undefined-- 27.504
0.49 --undefined-- 27.504
0.50 --undefined-- 28.109
0.51 --undefined-- 31.285
0.52 --undefined-- 37.005
0.53 --undefined-- 43.182
0.54 --undefined-- 48.073
0.55 --undefined-- 55.140
0.56 --undefined-- 63.337
0.57 --undefined-- 68.510
0.58 --undefined-- 71.318
0.59 182.413 72.471
0.60 179.947 72.033
0.61 176.669 70.766
0.62 175.091 69.858
0.63 172.850 69.395
0.64 171.937 68.804
0.65 172.069 67.524
0.66 171.853 65.542
0.67 172.251 62.939
0.68 171.253 60.503
0.69 167.023 59.613
0.70 166.828 60.454
0.71 167.698 61.974
0.72 171.410 63.481
0.73 178.053 64.522
0.74 183.381 64.770
0.75 188.650 65.330
0.76 193.175 67.035
0.77 197.966 67.833
0.78 202.924 66.678
0.79 204.477 64.205
0.80 203.043 61.194
0.81 191.329 57.363
0.82 189.321 53.053
0.83 183.282 49.574
0.84 --undefined-- 47.648
0.85 --undefined-- 49.279
0.86 169.412 53.614
0.87 162.773 57.285
0.88 162.096 59.415
0.89 159.929 61.303
0.90 153.814 63.532
0.91 151.520 65.163
0.92 151.026 65.874
0.93 151.205 65.589
0.94 152.279 64.479
0.95 152.289 62.946
0.96 151.921 61.749
0.97 151.933 62.027
0.98 147.285 62.483
0.99 141.511 62.296
1.00 144.347 61.461
1.01 154.863 60.186
1.02 158.721 59.498
1.03 156.288 60.427
1.04 151.092 61.772
1.05 153.238 62.529
1.06 156.442 63.062
1.07 158.110 63.594
1.08 160.909 64.145
1.09 163.448 64.763
1.10 163.344 64.910
1.11 160.919 63.792
1.12 158.076 61.123
1.13 155.475 56.859
1.14 --undefined-- 50.906
1.15 --undefined-- 44.585
1.16 --undefined-- 45.842
1.17 --undefined-- 50.531
1.18 283.660 52.991
1.19 285.084 53.678
1.20 282.815 58.483
1.21 282.901 64.774
1.22 155.133 68.851
1.23 154.630 70.828
1.24 152.396 71.260
1.25 149.842 70.652
1.26 147.429 69.152
1.27 147.498 67.156
1.28 149.029 65.252
1.29 148.514 63.410
1.30 149.209 61.902
1.31 151.882 60.485
1.32 153.167 59.533
1.33 153.119 59.386
1.34 151.533 59.242
1.35 147.915 58.583
1.36 147.393 57.760
1.37 147.514 57.184
1.38 141.266 57.171
1.39 137.314 56.923
1.40 132.903 55.531
1.41 131.181 52.892
1.42 --undefined-- 48.749
1.43 --undefined-- 43.101
1.44 --undefined-- 38.331
1.45 --undefined-- 34.645
1.46 --undefined-- 38.829
1.47 --undefined-- 49.044
1.48 --undefined-- 55.212
1.49 --undefined-- 58.583
1.50 --undefined-- 61.249
1.51 --undefined-- 62.698
1.52 --undefined-- 61.573
1.53 --undefined-- 58.698
1.54 --undefined-- 57.063
1.55 265.014 57.392
1.56 263.444 57.467
1.57 259.953 57.674
1.58 274.842 61.979
1.59 285.787 65.844
1.60 285.959 67.675
1.61 277.571 68.645
1.62 272.350 69.268
1.63 268.784 69.717
1.64 265.661 70.261
1.65 266.024 70.528
1.66 270.210 70.598
1.67 272.507 70.579
1.68 274.353 70.342
1.69 274.930 70.118
1.70 273.175 69.945
1.71 268.704 69.757
1.72 266.469 69.511
1.73 263.241 69.276
1.74 259.284 68.850
1.75 252.808 67.153
1.76 245.818 63.249
1.77 230.051 57.436
1.78 221.838 53.987
1.79 231.797 52.737
1.80 --undefined-- 49.676
1.81 --undefined-- 44.712
1.82 --undefined-- 46.088
1.83 --undefined-- 51.354
1.84 --undefined-- 55.095
1.85 --undefined-- 61.192
1.86 167.097 66.524
1.87 168.303 69.604
1.88 167.124 70.715
1.89 166.937 70.571
1.90 165.388 70.163
1.91 163.372 69.853
1.92 161.780 69.412
1.93 161.383 68.924
1.94 163.202 68.487
1.95 162.114 68.072
1.96 160.061 67.468
1.97 157.620 66.444
1.98 156.083 65.299
1.99 156.089 63.828
2.00 155.789 61.542
2.01 153.085 58.322
2.02 --undefined-- 54.227
2.03 --undefined-- 49.714
2.04 --undefined-- 47.878
2.05 --undefined-- 51.633
2.06 --undefined-- 54.402
2.07 --undefined-- 58.337
2.08 --undefined-- 64.346
2.09 166.220 68.359
2.10 166.513 70.085
2.11 166.411 70.441
2.12 164.683 70.718
2.13 163.236 71.269
2.14 162.751 71.597
2.15 162.722 71.513
2.16 162.856 70.861
2.17 161.539 69.770
2.18 159.604 69.093
2.19 159.282 68.843
2.20 159.561 68.485
2.21 159.787 67.924
2.22 160.681 66.656
2.23 162.353 64.235
2.24 162.396 60.978
2.25 158.873 57.098
2.26 --undefined-- 52.494
2.27 --undefined-- 48.557
2.28 --undefined-- 50.079
2.29 294.671 53.163
2.30 294.145 54.170
2.31 195.550 53.092
2.32 --undefined-- 51.282
2.33 --undefined-- 53.209
2.34 --undefined-- 56.919
2.35 84.208 58.941
2.36 84.210 59.026
2.37 --undefined-- 56.844
2.38 --undefined-- 52.972
2.39 --undefined-- 55.116
2.40 204.991 62.637
2.41 198.554 67.636
2.42 193.581 69.816
2.43 183.526 69.862
2.44 174.348 68.873
2.45 170.631 68.050
2.46 169.052 67.885
2.47 166.506 68.068
2.48 165.435 68.325
2.49 166.051 68.521
2.50 166.332 68.355
2.51 165.588 67.504
2.52 164.594 65.971
2.53 164.941 63.618
2.54 165.856 60.693
2.55 166.673 57.747
2.56 165.276 54.225
2.57 --undefined-- 49.583
2.58 --undefined-- 43.432
2.59 --undefined-- 43.895
2.60 --undefined-- 54.114
2.61 --undefined-- 59.548
2.62 --undefined-- 61.013
2.63 --undefined-- 60.899
2.64 --undefined-- 63.655
2.65 179.349 67.444
2.66 172.021 69.800
2.67 168.252 70.751
2.68 164.463 70.838
2.69 161.000 70.520
2.70 159.992 70.107
2.71 160.165 69.794
2.72 160.968 69.495
2.73 160.996 69.206
2.74 161.198 68.972
2.75 163.473 68.873
2.76 165.114 68.655
2.77 168.400 68.035
2.78 170.429 66.899
2.79 169.987 64.756
2.80 169.608 61.094
2.81 170.790 56.318
2.82 --undefined-- 54.339
2.83 --undefined-- 54.430
2.84 84.937 52.983
2.85 85.070 50.786
2.86 --undefined-- 49.387
2.87 --undefined-- 47.898
2.88 --undefined-- 46.859
2.89 --undefined-- 47.678
2.90 --undefined-- 48.954
2.91 --undefined-- 50.319
2.92 --undefined-- 51.803
2.93 --undefined-- 56.148
2.94 283.381 63.740
2.95 282.377 68.692
2.96 280.464 70.588
2.97 277.124 70.497
2.98 274.852 69.813
2.99 274.372 69.104
3.00 274.072 68.120
3.01 273.093 66.904
3.02 271.308 65.890
3.03 267.234 65.357
3.04 264.204 64.760
3.05 259.098 63.892
3.06 255.939 63.327
3.07 250.704 63.299
3.08 246.987 63.370
3.09 243.180 62.581
3.10 239.280 60.433
3.11 233.336 57.238
3.12 235.224 53.815
3.13 --undefined-- 49.249
3.14 --undefined-- 41.910
3.15 --undefined-- 39.242
3.16 --undefined-- 48.529
3.17 --undefined-- 57.937
3.18 --undefined-- 65.470
3.19 --undefined-- 70.297
3.20 --undefined-- 72.618
3.21 --undefined-- 72.874
3.22 --undefined-- 71.794
3.23 --undefined-- 70.542
3.24 --undefined-- 69.997
3.25 136.932 70.069
3.26 138.106 70.302
3.27 --undefined-- 70.591
3.28 147.079 70.806
3.29 148.179 69.766
3.30 --undefined-- 67.092
3.31 --undefined-- 63.296
3.32 --undefined-- 57.613
3.33 --undefined-- 48.996
3.34 --undefined-- 41.695
3.35 --undefined-- 39.853
3.36 --undefined-- 39.003
3.37 --undefined-- 36.954
3.38 --undefined-- 33.663
3.39 --undefined-- 29.312
3.40 --undefined-- 25.381
3.41 --undefined-- 23.670
3.42 --undefined-- 23.670
3.43 --undefined-- 24.395
3.44 --undefined-- 24.573
3.45 --undefined-- 23.390
3.46 --undefined-- 21.820
3.47 --undefined-- 22.471
3.48 --undefined-- 23.170
3.49 --undefined-- 22.606
3.50 --undefined-- 21.796
3.51 --undefined-- 23.132
3.52 --undefined-- 25.868
3.53 --undefined-- 27.316
3.54 --undefined-- 27.470
3.55 --undefined-- 27.031
3.56 --undefined-- 26.678
3.57 --undefined-- 26.768
3.58 --undefined-- 27.237
3.59 --undefined-- 27.757
3.60 --undefined-- 27.792
3.61 --undefined-- 27.151
3.62 --undefined-- 26.319
3.63 --undefined-- 25.850
3.64 --undefined-- 25.828
3.65 --undefined-- 25.573
3.66 --undefined-- 25.280
3.67 --undefined-- 25.393
3.68 --undefined-- 25.664
3.69 --undefined-- 25.828
3.70 --undefined-- 25.628
3.71 --undefined-- 25.544
3.72 --undefined-- 26.012
3.73 --undefined-- 26.426
3.74 --undefined-- 26.272
3.75 --undefined-- 25.994
3.76 --undefined-- 25.966
3.77 --undefined-- 25.960
3.78 --undefined-- 25.734
3.79 --undefined-- 25.555
3.80 --undefined-- 25.798
3.81 --undefined-- 26.154
3.82 --undefined-- 26.384
3.83 --undefined-- 26.286
3.84 --undefined-- 25.964
3.85 --undefined-- 27.199
3.86 --undefined-- 35.989
3.87 --undefined-- 45.557
3.88 --undefined-- 53.172
3.89 167.056 58.857
3.90 168.317 63.122
3.91 174.576 66.809
3.92 173.695 69.683
3.93 173.172 71.170
3.94 173.980 71.463
3.95 176.075 71.254
3.96 176.602 70.899
3.97 176.907 70.323
3.98 176.190 69.560
3.99 174.099 68.893
4.00 174.176 68.472
4.01 174.097 68.043
4.02 172.517 67.748
4.03 173.742 68.038
4.04 178.646 68.730
4.05 190.313 69.305
4.06 197.514 69.081
4.07 201.392 67.354
4.08 202.817 63.767
4.09 203.028 58.251
4.10 201.350 52.268
4.11 --undefined-- 48.963
4.12 --undefined-- 47.979
4.13 --undefined-- 57.419
4.14 --undefined-- 64.596
4.15 --undefined-- 67.213
4.16 --undefined-- 66.836
4.17 --undefined-- 67.411
4.18 --undefined-- 69.775
4.19 159.452 71.228
4.20 157.726 71.833
4.21 155.852 71.968
4.22 75.957 71.479
4.23 75.516 70.448
4.24 79.756 69.430
4.25 79.801 68.434
4.26 150.506 68.031
4.27 150.556 68.790
4.28 150.491 69.517
4.29 151.244 69.608
4.30 153.139 69.143
4.31 159.393 68.674
4.32 162.328 68.639
4.33 170.290 68.400
4.34 173.935 67.626
4.35 190.875 66.528
4.36 193.845 65.510
4.37 202.120 65.098
4.38 210.805 64.866
4.39 214.956 63.655
4.40 217.111 61.936
4.41 232.856 61.669
4.42 232.710 62.156
4.43 229.741 61.444
4.44 228.821 59.554
4.45 --undefined-- 57.410
4.46 --undefined-- 54.736
4.47 --undefined-- 50.089
4.48 --undefined-- 43.924
4.49 --undefined-- 37.612
4.50 --undefined-- 30.993
4.51 --undefined-- 27.320
4.52 --undefined-- 25.784
4.53 --undefined-- 25.184
4.54 --undefined-- 26.133
4.55 --undefined-- 42.061
4.56 --undefined-- 54.842
4.57 --undefined-- 61.714
4.58 --undefined-- 64.024
4.59 --undefined-- 62.685
4.60 --undefined-- 62.330
4.61 184.206 66.731
4.62 181.631 69.951
4.63 178.613 71.137
4.64 176.751 70.727
4.65 176.192 69.215
4.66 176.190 66.802
4.67 174.302 63.356
4.68 170.987 58.730
4.69 164.221 53.176
4.70 --undefined-- 47.042
4.71 --undefined-- 43.600
4.72 --undefined-- 49.315
4.73 --undefined-- 52.988
4.74 --undefined-- 52.510
4.75 --undefined-- 48.952
4.76 --undefined-- 46.486
4.77 --undefined-- 53.191
4.78 166.840 60.715
4.79 169.705 65.270
4.80 169.243 66.987
4.81 168.649 66.084
4.82 167.613 62.818
4.83 164.336 57.725
4.84 --undefined-- 51.335
4.85 --undefined-- 43.449
4.86 --undefined-- 35.301
4.87 --undefined-- 27.214
4.88 --undefined-- 29.163
4.89 --undefined-- 46.482
4.90 --undefined-- 56.939
4.91 254.569 62.022
4.92 255.159 62.954
4.93 258.085 63.141
4.94 246.823 66.081
4.95 239.091 67.889
4.96 234.762 67.937
4.97 234.570 67.161
4.98 235.295 66.136
4.99 234.525 64.984
5.00 235.122 64.192
5.01 235.490 64.020
5.02 235.396 64.243
5.03 235.731 64.418
5.04 235.631 64.277
5.05 238.431 64.187
5.06 242.447 64.720
5.07 244.572 65.402
5.08 250.397 64.813
5.09 258.041 62.203
5.10 262.478 58.397
5.11 --undefined-- 57.150
5.12 --undefined-- 58.955
5.13 --undefined-- 61.504
5.14 268.305 62.185
5.15 268.987 60.296
5.16 --undefined-- 62.202
5.17 274.548 68.306
5.18 269.989 71.409
5.19 --undefined-- 71.661
5.20 146.666 70.844
5.21 141.726 70.321
5.22 140.160 69.781
5.23 141.596 68.694
5.24 144.032 67.194
5.25 150.478 66.169
5.26 155.674 65.888
5.27 161.059 65.764
5.28 165.011 64.948
5.29 167.038 62.308
5.30 168.413 57.387
5.31 --undefined-- 50.501
5.32 --undefined-- 52.825
5.33 --undefined-- 60.224
5.34 --undefined-- 64.466
5.35 --undefined-- 66.614
5.36 --undefined-- 66.267
5.37 --undefined-- 63.016
5.38 215.871 58.622
5.39 261.598 57.961
5.40 255.687 61.059
5.41 262.137 64.035
5.42 270.776 66.528
5.43 269.208 68.656
5.44 263.610 69.955
5.45 258.747 70.535
5.46 254.909 70.767
5.47 251.522 70.814
5.48 250.228 70.474
5.49 244.411 70.003
5.50 241.700 69.984
5.51 241.970 70.454
5.52 241.786 71.265
5.53 241.274 71.736
5.54 241.961 71.423
5.55 247.358 70.699
5.56 248.731 69.847
5.57 244.526 68.477
5.58 241.767 66.581
5.59 241.452 64.228
5.60 242.010 61.000
5.61 286.205 57.223
5.62 292.402 54.092
5.63 --undefined-- 50.619
5.64 --undefined-- 44.403
5.65 --undefined-- 36.744
5.66 --undefined-- 31.692
5.67 --undefined-- 31.616
5.68 --undefined-- 37.942
5.69 --undefined-- 42.548
5.70 --undefined-- 44.913
5.71 --undefined-- 46.416
5.72 --undefined-- 48.790
5.73 --undefined-- 51.748
5.74 --undefined-- 52.961
5.75 --undefined-- 52.121
5.76 --undefined-- 51.194
5.77 --undefined-- 51.314
5.78 --undefined-- 51.402
5.79 --undefined-- 51.532
5.80 --undefined-- 52.210
5.81 --undefined-- 52.506
5.82 --undefined-- 52.525
5.83 --undefined-- 52.569
5.84 --undefined-- 52.342
5.85 --undefined-- 51.813
5.86 --undefined-- 51.183
5.87 --undefined-- 50.448
5.88 --undefined-- 48.599
5.89 --undefined-- 44.582
5.90 --undefined-- 38.269
5.91 --undefined-- 31.178
5.92 --undefined-- 27.775
5.93 --undefined-- 27.372
5.94 --undefined-- 27.548
5.95 --undefined-- 27.705
5.96 --undefined-- 27.963
5.97 --undefined-- 30.693
5.98 --undefined-- 43.006
5.99 --undefined-- 52.302
6.00 --undefined-- 57.576
6.01 87.826 59.652
6.02 87.689 59.854
6.03 87.517 59.651
6.04 89.466 --undefined--
6.05 91.136 --undefined--
6.06 --undefined-- --undefined--
6.07 --undefined-- --undefined--
