Time Pitch Intensity
0.01 --undefined-- --undefined--
0.02 133.853 --undefined--
0.03 131.271 --undefined--
0.04 128.085 --undefined--
0.05 127.417 71.761
0.06 126.637 71.019
0.07 124.045 70.640
0.08 122.623 71.751
0.09 123.246 72.867
0.10 123.456 73.365
0.11 124.827 73.667
0.12 125.106 73.840
0.13 125.373 73.851
0.14 125.290 73.748
0.15 125.659 73.560
0.16 129.919 73.139
0.17 128.435 72.512
0.18 128.224 71.819
0.19 125.832 70.652
0.20 116.948 68.518
0.21 97.721 65.836
0.22 97.381 63.441
0.23 96.249 61.606
0.24 102.654 62.634
0.25 121.987 65.453
0.26 126.752 68.363
0.27 130.375 70.698
0.28 130.792 72.307
0.29 129.856 73.262
0.30 127.838 73.815
0.31 126.707 74.201
0.32 125.785 74.411
0.33 124.622 74.198
0.34 123.975 73.650
0.35 123.848 73.122
0.36 124.941 72.693
0.37 125.479 72.183
0.38 124.995 71.651
0.39 124.051 71.274
0.40 123.087 70.921
0.41 122.761 70.452
0.42 121.670 69.909
0.43 123.071 69.455
0.44 117.336 68.798
0.45 144.099 67.591
0.46 143.603 65.651
0.47 144.254 62.913
0.48 142.041 59.096
0.49 --undefined-- 53.783
0.50 --undefined-- 50.575
0.51 --undefined-- 47.435
0.52 --undefined-- 42.261
0.53 --undefined-- 37.777
0.54 --undefined-- 35.575
0.55 --undefined-- 35.282
0.56 --undefined-- 35.449
0.57 --undefined-- 35.092
0.58 --undefined-- 35.052
0.59 --undefined-- 35.729
0.60 --undefined-- 36.630
0.61 --undefined-- 38.173
0.62 --undefined-- 46.568
0.63 --undefined-- 57.399
0.64 --undefined-- 65.204
0.65 148.366 70.708
0.66 148.935 74.376
0.67 149.093 76.539
0.68 148.232 77.400
0.69 147.283 77.002
0.70 146.088 74.969
0.71 143.126 70.749
0.72 117.877 64.439
0.73 112.831 58.344
0.74 --undefined-- 57.138
0.75 191.532 64.251
0.76 188.522 70.396
0.77 193.048 74.149
0.78 198.725 75.983
0.79 202.766 76.540
0.80 204.101 75.936
0.81 201.477 73.426
0.82 --undefined-- 68.186
0.83 --undefined-- 59.985
0.84 --undefined-- 50.423
0.85 --undefined-- 48.375
0.86 --undefined-- 56.902
0.87 --undefined-- 62.862
0.88 --undefined-- 65.007
0.89 --undefined-- 64.064
0.90 --undefined-- 61.028
0.91 --undefined-- 58.250
0.92 --undefined-- 58.214
0.93 178.009 63.887
0.94 171.680 69.891
0.95 161.057 73.664
0.96 153.760 76.018
0.97 150.708 77.651
0.98 147.943 78.387
0.99 147.939 78.193
1.00 147.105 77.400
1.01 144.619 76.315
1.02 141.261 75.196
1.03 137.726 74.023
1.04 136.202 73.027
1.05 139.680 72.447
1.06 140.961 72.136
1.07 140.763 71.996
1.08 139.895 71.858
1.09 139.025 71.767
1.10 141.402 72.253
1.11 131.155 73.200
1.12 127.135 74.010
1.13 124.548 74.587
1.14 120.980 74.767
1.15 118.199 74.610
1.16 117.139 74.014
1.17 117.641 72.796
1.18 119.553 71.197
1.19 118.526 68.915
1.20 114.622 65.154
1.21 111.249 60.015
1.22 109.175 54.714
1.23 --undefined-- 49.709
1.24 --undefined-- 47.094
1.25 --undefined-- 55.261
1.26 --undefined-- 61.528
1.27 --undefined-- 65.442
1.28 177.679 69.374
1.29 163.628 72.618
1.30 160.685 74.309
1.31 158.439 74.870
1.32 157.776 74.958
1.33 159.107 74.820
1.34 160.216 74.609
1.35 160.777 74.603
1.36 160.766 74.792
1.37 160.899 74.857
1.38 161.200 74.356
1.39 158.513 72.818
1.40 154.017 69.732
1.41 149.952 64.592
1.42 --undefined-- 57.153
1.43 --undefined-- 48.420
1.44 --undefined-- 43.341
1.45 --undefined-- 42.310
1.46 --undefined-- 42.513
1.47 --undefined-- 49.951
1.48 --undefined-- 60.255
1.49 191.814 66.874
1.50 175.164 70.422
1.51 166.225 71.772
1.52 164.511 71.965
1.53 164.076 71.880
1.54 164.916 71.958
1.55 166.219 72.115
1.56 167.545 72.161
1.57 169.516 72.138
1.58 172.137 72.216
1.59 175.672 72.547
1.60 177.442 72.968
1.61 177.668 73.206
1.62 175.901 73.171
1.63 173.409 72.790
1.64 169.991 71.846
1.65 165.483 70.029
1.66 159.142 67.304
1.67 --undefined-- 64.268
1.68 --undefined-- 61.054
1.69 --undefined-- 56.457
1.70 --undefined-- 51.075
1.71 --undefined-- 46.740
1.72 --undefined-- 41.669
1.73 --undefined-- 38.109
1.74 --undefined-- 38.081
1.75 --undefined-- 37.584
1.76 --undefined-- 37.103
1.77 --undefined-- 37.741
1.78 --undefined-- 37.933
1.79 --undefined-- 37.749
1.80 --undefined-- 38.500
1.81 --undefined-- 40.010
1.82 --undefined-- 39.683
1.83 --undefined-- 37.148
1.84 --undefined-- 35.773
1.85 --undefined-- 35.816
1.86 --undefined-- 35.468
1.87 --undefined-- 35.849
1.88 --undefined-- 37.168
1.89 --undefined-- 37.635
1.90 --undefined-- 36.526
1.91 --undefined-- 35.363
1.92 --undefined-- 35.981
1.93 --undefined-- 36.681
1.94 --undefined-- 36.487
1.95 --undefined-- 36.621
1.96 --undefined-- 37.122
1.97 --undefined-- 37.146
1.98 --undefined-- 40.213
1.99 --undefined-- 44.835
2.00 --undefined-- 48.434
2.01 --undefined-- 52.878
2.02 --undefined-- 61.036
2.03 170.662 67.453
2.04 165.421 71.171
2.05 166.685 73.318
2.06 172.161 74.483
2.07 184.059 74.933
2.08 200.763 75.807
2.09 208.360 76.843
2.10 211.632 76.248
2.11 217.572 73.079
2.12 202.373 67.133
2.13 --undefined-- 58.727
2.14 --undefined-- 50.394
2.15 --undefined-- 50.799
2.16 --undefined-- 55.204
2.17 --undefined-- 62.567
2.18 247.176 69.722
2.19 226.688 74.270
2.20 202.433 76.239
2.21 168.423 76.324
2.22 160.345 76.095
2.23 155.105 76.232
2.24 152.740 76.116
2.25 149.695 75.715
2.26 146.713 75.438
2.27 143.986 75.184
2.28 140.509 74.187
2.29 137.422 71.590
2.30 132.567 66.858
2.31 --undefined-- 59.925
2.32 --undefined-- 52.480
2.33 --undefined-- 48.645
2.34 --undefined-- 47.570
2.35 --undefined-- 48.682
2.36 --undefined-- 51.166
2.37 --undefined-- 52.699
2.38 --undefined-- 52.752
2.39 --undefined-- 57.557
2.40 236.488 66.109
2.41 215.158 71.428
2.42 199.566 74.072
2.43 193.603 75.559
2.44 190.791 76.204
2.45 187.260 75.506
2.46 186.376 74.226
2.47 186.338 73.415
2.48 186.294 72.651
2.49 186.805 71.460
2.50 189.749 70.069
2.51 194.121 69.129
2.52 192.264 68.893
2.53 186.971 69.712
2.54 191.535 71.247
2.55 190.582 72.348
2.56 185.040 72.744
2.57 177.517 72.467
2.58 168.135 71.679
2.59 156.612 71.700
2.60 154.480 73.099
2.61 148.950 74.109
2.62 142.181 74.020
2.63 136.115 72.658
2.64 130.079 69.321
2.65 101.169 63.562
2.66 --undefined-- 56.298
2.67 --undefined-- 49.978
2.68 --undefined-- 47.976
2.69 --undefined-- 46.866
2.70 --undefined-- 44.033
2.71 --undefined-- 41.810
2.72 --undefined-- 45.836
2.73 --undefined-- 53.266
2.74 --undefined-- 56.833
2.75 --undefined-- 56.658
2.76 --undefined-- 55.251
2.77 --undefined-- 55.547
2.78 --undefined-- 56.313
2.79 --undefined-- 61.217
2.80 184.284 67.142
2.81 160.078 70.312
2.82 150.471 71.315
2.83 145.097 71.337
2.84 143.549 70.607
2.85 141.602 68.371
2.86 --undefined-- 63.878
2.87 --undefined-- 57.282
2.88 --undefined-- 50.256
2.89 --undefined-- 44.123
2.90 --undefined-- 41.821
2.91 --undefined-- 46.635
2.92 --undefined-- 57.532
2.93 --undefined-- 65.140
2.94 --undefined-- 69.087
2.95 132.007 70.236
2.96 121.550 69.880
2.97 117.429 69.313
2.98 112.479 69.294
2.99 113.968 69.707
3.00 114.943 69.798
3.01 115.667 69.479
3.02 116.264 68.947
3.03 117.009 68.333
3.04 119.663 67.807
3.05 126.033 68.103
3.06 132.540 69.570
3.07 132.374 70.922
3.08 127.587 71.427
3.09 124.499 71.126
3.10 118.436 69.976
3.11 115.121 67.696
3.12 115.780 63.807
3.13 --undefined-- 57.834
3.14 --undefined-- 50.464
3.15 --undefined-- 46.097
3.16 --undefined-- 44.744
3.17 --undefined-- 43.535
3.18 --undefined-- 41.884
3.19 --undefined-- 40.463
3.20 --undefined-- 40.021
3.21 --undefined-- 45.270
3.22 --undefined-- 53.524
3.23 126.227 59.148
3.24 112.385 62.218
3.25 106.725 63.431
3.26 104.488 63.611
3.27 104.189 63.723
3.28 106.487 64.203
3.29 109.165 64.781
3.30 111.471 65.379
3.31 112.481 65.897
3.32 112.945 66.164
3.33 115.266 65.939
3.34 107.772 65.713
3.35 115.770 66.831
3.36 122.040 67.649
3.37 124.106 67.424
3.38 126.136 67.455
3.39 125.756 68.176
3.40 124.908 68.653
3.41 125.099 68.699
3.42 124.579 68.870
3.43 123.976 69.233
3.44 124.212 69.728
3.45 124.020 70.464
3.46 122.474 71.235
3.47 120.897 71.692
3.48 119.592 71.663
3.49 120.071 71.003
3.50 121.240 69.921
3.51 120.205 68.809
3.52 119.199 67.532
3.53 --undefined-- 65.868
3.54 76.653 63.353
3.55 77.934 59.477
3.56 --undefined-- 54.909
3.57 --undefined-- 49.530
3.58 --undefined-- 43.907
3.59 --undefined-- 41.112
3.60 --undefined-- 39.982
3.61 --undefined-- 39.636
3.62 --undefined-- 38.004
3.63 --undefined-- 35.208
3.64 --undefined-- 34.725
3.65 --undefined-- 35.066
3.66 --undefined-- 35.106
3.67 --undefined-- 35.719
3.68 --undefined-- 37.228
3.69 --undefined-- 40.459
3.70 --undefined-- 46.073
3.71 --undefined-- 49.516
3.72 --undefined-- 49.927
3.73 --undefined-- 48.364
3.74 --undefined-- 49.570
3.75 --undefined-- 53.805
3.76 --undefined-- 57.684
3.77 178.253 63.261
3.78 187.935 68.446
3.79 186.759 71.360
3.80 183.610 72.380
3.81 179.566 72.411
3.82 175.806 72.071
3.83 173.740 71.504
3.84 174.166 70.942
3.85 173.863 70.847
3.86 171.146 71.266
3.87 166.349 71.921
3.88 160.720 72.791
3.89 156.346 73.810
3.90 152.042 74.491
3.91 146.980 74.671
3.92 141.824 75.028
3.93 138.549 75.672
3.94 135.978 75.860
3.95 132.248 75.358
3.96 131.092 74.350
3.97 130.681 72.238
3.98 106.626 67.957
3.99 105.920 61.444
4.00 --undefined-- 54.640
4.01 --undefined-- 49.540
4.02 --undefined-- 46.164
4.03 --undefined-- 51.675
4.04 --undefined-- 60.947
4.05 --undefined-- 66.704
4.06 128.789 69.796
4.07 120.090 71.133
4.08 115.205 71.222
4.09 112.807 70.773
4.10 112.548 70.643
4.11 109.859 70.495
4.12 110.699 69.866
4.13 114.859 69.347
4.14 115.770 69.335
4.15 115.936 69.011
4.16 113.141 67.251
4.17 98.979 63.317
4.18 89.811 56.993
4.19 --undefined-- 49.669
4.20 --undefined-- 42.274
4.21 --undefined-- 38.519
4.22 --undefined-- 38.510
4.23 --undefined-- 39.938
4.24 --undefined-- 50.274
4.25 --undefined-- 59.474
4.26 --undefined-- 64.923
4.27 119.970 67.636
4.28 117.578 68.933
4.29 114.227 69.648
4.30 112.668 69.884
4.31 114.119 69.684
4.32 115.647 69.281
4.33 117.766 69.134
4.34 119.638 69.388
4.35 123.476 69.919
4.36 126.745 70.671
4.37 131.736 71.669
4.38 140.288 72.732
4.39 146.877 73.532
4.40 151.554 73.553
4.41 152.863 72.141
4.42 150.903 68.659
4.43 147.475 62.502
4.44 147.978 54.773
4.45 --undefined-- 48.724
4.46 --undefined-- 48.321
4.47 --undefined-- 57.959
4.48 --undefined-- 65.608
4.49 --undefined-- 69.497
4.50 123.863 70.649
4.51 114.579 70.515
4.52 113.386 70.282
4.53 113.393 70.242
4.54 116.282 70.450
4.55 121.527 70.935
4.56 124.481 71.433
4.57 131.009 71.993
4.58 136.050 72.641
4.59 136.754 72.181
4.60 135.240 69.461
4.61 128.372 64.455
4.62 128.234 58.291
4.63 --undefined-- 51.845
4.64 --undefined-- 45.081
4.65 --undefined-- 42.094
4.66 --undefined-- 45.012
4.67 --undefined-- 54.744
4.68 --undefined-- 63.030
4.69 --undefined-- 67.608
4.70 --undefined-- 69.353
4.71 115.623 69.183
4.72 106.457 67.993
4.73 101.926 67.048
4.74 102.570 67.097
4.75 103.738 67.635
4.76 104.953 68.016
4.77 107.643 68.041
4.78 112.014 68.197
4.79 117.138 68.728
4.80 120.981 69.461
4.81 129.237 70.506
4.82 134.499 71.549
4.83 138.179 71.917
4.84 139.161 70.963
4.85 135.994 68.015
4.86 133.103 62.845
4.87 --undefined-- 55.753
4.88 --undefined-- 53.607
4.89 --undefined-- 60.551
4.90 --undefined-- 66.038
4.91 160.266 70.428
4.92 145.778 73.028
4.93 138.774 73.718
4.94 130.280 73.243
4.95 127.591 72.823
4.96 125.582 72.977
4.97 124.293 73.285
4.98 123.133 73.426
4.99 122.393 73.445
5.00 122.435 73.495
5.01 122.656 73.518
5.02 123.407 73.270
5.03 123.974 72.613
5.04 123.953 71.302
5.05 125.431 69.249
5.06 --undefined-- 66.690
5.07 --undefined-- 63.569
5.08 --undefined-- 59.353
5.09 --undefined-- 54.227
5.10 --undefined-- 49.460
5.11 --undefined-- 44.746
5.12 --undefined-- 41.351
5.13 --undefined-- 40.282
5.14 --undefined-- 38.546
5.15 --undefined-- 38.261
5.16 --undefined-- 40.814
5.17 --undefined-- 41.600
5.18 --undefined-- 38.907
5.19 --undefined-- 35.415
5.20 --undefined-- 36.184
5.21 --undefined-- 36.809
5.22 --undefined-- 35.689
5.23 --undefined-- 34.843
5.24 --undefined-- 36.019
5.25 --undefined-- 37.392
5.26 --undefined-- 37.884
5.27 --undefined-- 37.648
5.28 --undefined-- 37.321
5.29 --undefined-- 37.035
5.30 --undefined-- 36.767
5.31 --undefined-- 35.821
5.32 --undefined-- 35.203
5.33 --undefined-- 35.133
5.34 --undefined-- 35.888
5.35 --undefined-- 38.062
5.36 --undefined-- 39.483
5.37 --undefined-- 39.620
5.38 --undefined-- 39.390
5.39 --undefined-- 39.172
5.40 --undefined-- 39.240
5.41 --undefined-- 39.495
5.42 --undefined-- 39.603
5.43 --undefined-- 39.568
5.44 --undefined-- 39.174
5.45 --undefined-- 38.740
5.46 --undefined-- 39.181
5.47 --undefined-- 40.333
5.48 --undefined-- 40.264
5.49 --undefined-- 37.947
5.50 --undefined-- 35.232
5.51 --undefined-- 34.552
5.52 --undefined-- 36.183
5.53 --undefined-- 38.386
5.54 --undefined-- 38.427
5.55 --undefined-- 39.874
5.56 --undefined-- 53.380
5.57 --undefined-- 63.137
5.58 166.062 69.024
5.59 167.185 72.576
5.60 163.251 74.813
5.61 161.924 75.889
5.62 160.112 75.889
5.63 155.981 75.043
5.64 158.214 74.145
5.65 160.483 73.744
5.66 159.076 73.582
5.67 155.387 73.515
5.68 152.276 73.592
5.69 150.052 74.425
5.70 146.640 76.189
5.71 145.222 77.509
5.72 142.056 77.651
5.73 138.705 77.031
5.74 136.547 76.168
5.75 135.948 75.402
5.76 135.088 74.883
5.77 133.613 74.499
5.78 133.218 74.362
5.79 133.365 74.452
5.80 133.905 74.293
5.81 134.224 74.131
5.82 133.287 74.324
5.83 139.840 74.160
5.84 139.539 73.401
5.85 139.355 72.243
5.86 137.256 70.579
5.87 130.590 68.120
5.88 --undefined-- 64.931
5.89 --undefined-- 61.145
5.90 --undefined-- 56.674
5.91 --undefined-- 50.931
5.92 --undefined-- 45.397
5.93 --undefined-- 42.560
5.94 --undefined-- 40.483
5.95 --undefined-- 39.897
5.96 --undefined-- 40.103
5.97 --undefined-- 39.314
5.98 --undefined-- 37.706
5.99 --undefined-- 35.964
6.00 --undefined-- 34.575
6.01 --undefined-- 35.250
6.02 --undefined-- 36.082
6.03 --undefined-- 36.920
6.04 --undefined-- 40.721
6.05 --undefined-- 45.171
6.06 --undefined-- 48.476
6.07 --undefined-- 51.664
6.08 --undefined-- 57.067
6.09 --undefined-- 61.548
6.10 --undefined-- --undefined--
6.11 --undefined-- --undefined--
6.12 --undefined-- --undefined--
6.13 --undefined-- --undefined--
