Time Pitch Intensity
0.01 --undefined-- --undefined--
0.02 184.054 --undefined--
0.03 172.399 --undefined--
0.04 164.271 --undefined--
0.05 154.811 58.275
0.06 151.460 58.284
0.07 149.887 57.780
0.08 148.628 56.327
0.09 --undefined-- 52.751
0.10 --undefined-- 46.872
0.11 --undefined-- 46.511
0.12 --undefined-- 55.001
0.13 --undefined-- 61.249
0.14 --undefined-- 64.968
0.15 249.648 69.588
0.16 250.931 73.007
0.17 247.963 73.284
0.18 250.294 71.532
0.19 264.414 70.231
0.20 276.114 69.325
0.21 287.154 68.099
0.22 151.494 67.508
0.23 155.839 67.855
0.24 156.730 68.241
0.25 157.244 68.392
0.26 156.894 68.414
0.27 156.325 68.614
0.28 153.546 69.224
0.29 150.888 69.838
0.30 292.619 70.115
0.31 280.620 69.959
0.32 267.665 69.696
0.33 255.753 69.961
0.34 245.514 70.855
0.35 238.176 72.035
0.36 233.599 72.726
0.37 228.213 72.484
0.38 221.363 71.835
0.39 216.640 71.341
0.40 212.004 70.512
0.41 207.403 68.479
0.42 199.482 65.916
0.43 198.814 67.091
0.44 189.353 70.091
0.45 184.077 71.941
0.46 179.473 72.051
0.47 170.556 70.534
0.48 163.098 68.904
0.49 159.295 68.560
0.50 157.553 68.533
0.51 158.022 67.758
0.52 163.044 66.838
0.53 169.620 67.174
0.54 176.756 68.236
0.55 183.998 68.647
0.56 198.136 68.694
0.57 203.078 68.357
0.58 197.357 66.662
0.59 216.457 66.484
0.60 212.457 68.121
0.61 209.070 68.496
0.62 203.141 68.551
0.63 197.647 68.640
0.64 192.402 67.237
0.65 188.583 63.258
0.66 --undefined-- 56.632
0.67 --undefined-- 53.767
0.68 --undefined-- 55.752
0.69 --undefined-- 58.042
0.70 --undefined-- 59.781
0.71 --undefined-- 59.927
0.72 --undefined-- 59.940
0.73 --undefined-- 61.272
0.74 --undefined-- 62.867
0.75 --undefined-- 63.567
0.76 --undefined-- 63.579
0.77 --undefined-- 64.317
0.78 --undefined-- 67.372
0.79 --undefined-- 69.987
0.80 153.659 70.467
0.81 148.345 69.346
0.82 148.359 68.320
0.83 148.636 67.890
0.84 148.930 66.791
0.85 151.808 64.819
0.86 157.762 63.098
0.87 163.215 61.532
0.88 166.058 58.270
0.89 --undefined-- 51.944
0.90 --undefined-- 44.354
0.91 --undefined-- 49.497
0.92 --undefined-- 59.363
0.93 --undefined-- 66.833
0.94 --undefined-- 71.109
0.95 177.099 72.583
0.96 171.397 72.177
0.97 163.839 71.134
0.98 159.771 70.727
0.99 157.792 70.995
1.00 156.455 70.924
1.01 156.011 70.241
1.02 157.681 69.136
1.03 160.602 67.612
1.04 165.535 65.457
1.05 171.231 62.290
1.06 170.119 57.632
1.07 161.529 51.544
1.08 --undefined-- 47.449
1.09 --undefined-- 47.553
1.10 --undefined-- 49.326
1.11 --undefined-- 52.783
1.12 --undefined-- 60.469
1.13 236.932 66.743
1.14 217.226 70.017
1.15 211.872 71.424
1.16 209.520 71.746
1.17 206.134 70.734
1.18 201.814 68.193
1.19 197.366 66.303
1.20 193.342 67.900
1.21 188.994 69.802
1.22 181.320 70.450
1.23 174.023 70.236
1.24 171.194 69.637
1.25 171.103 68.788
1.26 175.876 67.893
1.27 178.382 66.212
1.28 176.042 62.124
1.29 --undefined-- 54.672
1.30 --undefined-- 46.326
1.31 --undefined-- 49.512
1.32 --undefined-- 55.629
1.33 --undefined-- 59.398
1.34 --undefined-- 61.358
1.35 --undefined-- 64.805
1.36 156.974 69.368
1.37 155.250 71.843
1.38 154.579 72.108
1.39 155.757 70.591
1.40 156.772 68.558
1.41 156.479 67.750
1.42 154.981 67.550
1.43 152.050 67.114
1.44 294.603 66.739
1.45 280.768 67.692
1.46 276.501 70.421
1.47 269.775 72.949
1.48 255.133 74.034
1.49 235.776 73.566
1.50 217.570 72.266
1.51 190.695 71.361
1.52 174.923 70.953
1.53 163.619 70.028
1.54 151.275 68.279
1.55 144.624 66.188
1.56 112.948 64.031
1.57 113.931 61.735
1.58 110.175 59.653
1.59 218.743 58.071
1.60 221.034 57.928
1.61 229.462 62.399
1.62 227.594 67.434
1.63 204.280 70.526
1.64 203.110 71.969
1.65 212.423 72.228
1.66 223.696 71.597
1.67 231.375 69.920
1.68 233.120 66.692
1.69 226.845 61.692
1.70 --undefined-- 56.072
1.71 --undefined-- 53.360
1.72 --undefined-- 52.591
1.73 --undefined-- 51.076
1.74 --undefined-- 55.700
1.75 --undefined-- 64.049
1.76 --undefined-- 69.176
1.77 139.093 71.362
1.78 140.013 71.374
1.79 130.380 70.443
1.80 127.418 69.376
1.81 126.745 67.775
1.82 125.303 65.134
1.83 126.845 61.358
1.84 122.146 56.668
1.85 123.078 52.615
1.86 124.838 51.471
1.87 --undefined-- 53.313
1.88 --undefined-- 55.576
1.89 134.174 57.804
1.90 132.481 59.606
1.91 132.020 60.159
1.92 127.065 59.032
1.93 --undefined-- 56.757
1.94 --undefined-- 53.894
1.95 --undefined-- 50.007
1.96 --undefined-- 47.363
1.97 --undefined-- 47.531
1.98 --undefined-- 48.486
1.99 --undefined-- 50.368
2.00 --undefined-- 55.602
2.01 --undefined-- 62.711
2.02 --undefined-- 66.963
2.03 --undefined-- 68.478
2.04 --undefined-- 68.372
2.05 --undefined-- 67.590
2.06 --undefined-- 66.874
2.07 --undefined-- 66.790
2.08 --undefined-- 67.366
2.09 169.926 67.087
2.10 166.771 64.877
2.11 167.270 60.730
2.12 175.635 56.866
2.13 191.103 56.064
2.14 203.164 55.215
2.15 213.696 52.048
2.16 --undefined-- 47.812
2.17 --undefined-- 50.754
2.18 --undefined-- 56.800
2.19 --undefined-- 60.148
2.20 --undefined-- 60.568
2.21 --undefined-- 59.568
2.22 --undefined-- 58.644
2.23 --undefined-- 58.440
2.24 195.259 60.136
2.25 196.304 62.192
2.26 --undefined-- 64.863
2.27 --undefined-- 67.201
2.28 145.516 67.757
2.29 133.833 66.723
2.30 125.376 64.838
2.31 121.637 62.247
2.32 117.054 58.355
2.33 --undefined-- 54.658
2.34 --undefined-- 54.633
2.35 --undefined-- 55.264
2.36 --undefined-- 55.642
2.37 --undefined-- 57.649
2.38 136.068 59.551
2.39 132.324 60.568
2.40 134.112 61.628
2.41 135.736 63.022
2.42 137.780 64.777
2.43 139.136 66.696
2.44 139.478 68.340
2.45 139.117 69.469
2.46 140.114 70.053
2.47 142.789 70.341
2.48 144.731 70.704
2.49 148.370 71.219
2.50 151.194 71.452
2.51 153.584 70.741
2.52 155.141 68.923
2.53 155.870 66.390
2.54 154.149 63.434
2.55 154.464 59.644
2.56 160.217 55.447
2.57 181.259 58.457
2.58 175.758 64.960
2.59 174.110 69.640
2.60 172.572 72.102
2.61 170.539 72.499
2.62 169.857 71.628
2.63 172.614 71.095
2.64 176.040 71.448
2.65 179.919 71.754
2.66 184.380 71.660
2.67 187.757 71.312
2.68 190.380 70.825
2.69 192.455 70.331
2.70 193.519 70.037
2.71 192.125 70.407
2.72 188.401 71.234
2.73 182.853 71.622
2.74 175.679 71.164
2.75 169.638 69.510
2.76 164.858 65.890
2.77 --undefined-- 59.654
2.78 --undefined-- 51.812
2.79 --undefined-- 47.367
2.80 --undefined-- 45.469
2.81 --undefined-- 44.331
2.82 --undefined-- 45.764
2.83 --undefined-- 55.895
2.84 --undefined-- 63.870
2.85 --undefined-- 67.043
2.86 --undefined-- 65.976
2.87 --undefined-- 61.517
2.88 --undefined-- 56.267
2.89 --undefined-- 52.440
2.90 --undefined-- 51.322
2.91 --undefined-- 57.541
2.92 --undefined-- 64.002
2.93 138.495 68.011
2.94 134.865 69.935
2.95 134.356 70.453
2.96 133.878 70.255
2.97 134.674 69.598
2.98 159.315 68.598
2.99 158.375 67.496
3.00 161.088 66.053
3.01 160.649 64.512
3.02 158.856 62.359
3.03 159.794 58.490
3.04 --undefined-- 52.789
3.05 --undefined-- 47.216
3.06 --undefined-- 46.785
3.07 --undefined-- 50.534
3.08 --undefined-- 58.773
3.09 --undefined-- 64.434
3.10 --undefined-- 66.825
3.11 --undefined-- 68.533
3.12 --undefined-- 70.415
3.13 --undefined-- 70.646
3.14 --undefined-- 69.082
3.15 75.657 67.037
3.16 75.001 65.424
3.17 --undefined-- 63.801
3.18 --undefined-- 62.507
3.19 --undefined-- 61.002
3.20 --undefined-- 58.192
3.21 --undefined-- 53.965
3.22 --undefined-- 49.507
3.23 --undefined-- 46.979
3.24 --undefined-- 44.362
3.25 --undefined-- 41.316
3.26 --undefined-- 41.925
3.27 --undefined-- 51.970
3.28 --undefined-- 59.349
3.29 --undefined-- 61.998
3.30 --undefined-- 60.588
3.31 --undefined-- 56.492
3.32 --undefined-- 53.730
3.33 --undefined-- 54.601
3.34 --undefined-- 54.985
3.35 --undefined-- 53.116
3.36 --undefined-- 50.641
3.37 --undefined-- 48.811
3.38 --undefined-- 46.951
3.39 --undefined-- 45.790
3.40 --undefined-- 45.333
3.41 --undefined-- 45.325
3.42 --undefined-- 46.190
3.43 --undefined-- 49.064
3.44 --undefined-- 56.504
3.45 --undefined-- 64.486
3.46 --undefined-- 69.407
3.47 209.979 71.054
3.48 199.831 70.307
3.49 192.045 68.906
3.50 186.366 68.247
3.51 182.960 67.783
3.52 180.462 66.700
3.53 179.821 64.691
3.54 180.007 62.465
3.55 179.641 61.298
3.56 178.463 60.511
3.57 177.971 59.527
3.58 178.313 58.803
3.59 179.404 58.780
3.60 180.351 59.110
3.61 181.788 59.235
3.62 182.584 59.186
3.63 182.497 59.224
3.64 181.460 59.285
3.65 180.869 59.202
3.66 180.567 59.171
3.67 180.320 59.441
3.68 179.618 59.752
3.69 177.528 59.894
3.70 175.336 59.528
3.71 171.348 58.287
3.72 164.319 57.548
3.73 163.246 60.950
3.74 162.490 65.243
3.75 --undefined-- 67.679
3.76 --undefined-- 68.668
3.77 --undefined-- 68.818
3.78 77.358 68.246
3.79 85.931 67.743
3.80 --undefined-- 66.402
3.81 --undefined-- 62.127
3.82 --undefined-- 53.634
3.83 --undefined-- 43.984
3.84 --undefined-- 41.293
3.85 --undefined-- 40.017
3.86 --undefined-- 39.816
3.87 --undefined-- 39.805
3.88 --undefined-- 40.376
3.89 --undefined-- 46.736
3.90 --undefined-- 54.058
3.91 --undefined-- 58.417
3.92 174.796 60.856
3.93 167.753 62.197
3.94 161.220 63.018
3.95 164.385 65.421
3.96 --undefined-- 67.974
3.97 158.234 69.157
3.98 159.206 70.093
3.99 159.502 71.166
4.00 160.090 71.699
4.01 162.405 71.572
4.02 165.391 70.939
4.03 165.165 69.866
4.04 164.149 68.352
4.05 163.566 66.114
4.06 161.014 62.957
4.07 159.094 58.657
4.08 162.621 52.901
4.09 --undefined-- 48.859
4.10 --undefined-- 55.664
4.11 --undefined-- 61.329
4.12 --undefined-- 62.739
4.13 --undefined-- 60.926
4.14 167.862 59.597
4.15 168.256 60.065
4.16 --undefined-- 59.975
4.17 --undefined-- 59.623
4.18 --undefined-- 59.713
4.19 --undefined-- 60.338
4.20 --undefined-- 60.877
4.21 --undefined-- 62.835
4.22 --undefined-- 66.166
4.23 --undefined-- 67.953
4.24 --undefined-- 67.261
4.25 --undefined-- 64.803
4.26 --undefined-- 63.341
4.27 --undefined-- 63.549
4.28 --undefined-- 63.488
4.29 --undefined-- 63.098
4.30 --undefined-- 61.908
4.31 --undefined-- 58.984
4.32 --undefined-- 54.224
4.33 --undefined-- 47.556
4.34 --undefined-- 43.174
4.35 --undefined-- 42.557
4.36 --undefined-- 41.720
4.37 --undefined-- 40.755
4.38 --undefined-- 40.654
4.39 --undefined-- 42.659
4.40 --undefined-- 43.520
4.41 --undefined-- 41.871
4.42 --undefined-- 40.438
4.43 --undefined-- 41.011
4.44 --undefined-- 41.316
4.45 --undefined-- 42.637
4.46 --undefined-- 48.857
4.47 --undefined-- 54.754
4.48 --undefined-- 57.814
4.49 --undefined-- 59.216
4.50 --undefined-- 63.526
4.51 --undefined-- 67.784
4.52 154.691 69.794
4.53 146.859 70.372
4.54 141.901 70.661
4.55 140.294 70.966
4.56 139.975 71.122
4.57 140.500 71.173
4.58 141.855 70.912
4.59 143.574 70.398
4.60 144.457 70.058
4.61 145.170 69.869
4.62 146.600 69.560
4.63 147.048 68.972
4.64 147.672 68.136
4.65 148.077 67.129
4.66 148.550 65.898
4.67 149.460 64.395
4.68 149.163 61.999
4.69 162.816 58.804
4.70 171.743 56.700
4.71 174.419 57.240
4.72 175.085 57.973
4.73 172.688 59.870
4.74 179.502 64.044
4.75 169.738 67.863
4.76 158.553 70.171
4.77 153.522 71.180
4.78 151.317 71.383
4.79 150.718 70.845
4.80 150.542 69.673
4.81 150.800 68.434
4.82 151.702 67.691
4.83 153.493 67.325
4.84 155.887 67.221
4.85 158.849 67.674
4.86 164.331 69.188
4.87 170.589 71.300
4.88 173.749 72.835
4.89 174.311 73.044
4.90 171.425 71.804
4.91 168.591 70.009
4.92 168.307 68.728
4.93 167.873 67.749
4.94 167.610 67.007
4.95 168.272 66.223
4.96 166.433 64.148
4.97 161.612 59.827
4.98 --undefined-- 53.674
4.99 --undefined-- 49.875
5.00 --undefined-- 50.154
5.01 --undefined-- 49.886
5.02 --undefined-- 47.263
5.03 --undefined-- 43.286
5.04 --undefined-- 41.547
5.05 --undefined-- 41.002
5.06 --undefined-- 39.845
5.07 --undefined-- 38.419
5.08 --undefined-- 37.485
5.09 --undefined-- 41.537
5.10 --undefined-- 50.197
5.11 --undefined-- 54.984
5.12 --undefined-- 55.400
5.13 --undefined-- 52.126
5.14 --undefined-- 50.463
5.15 --undefined-- 51.142
5.16 --undefined-- 48.623
5.17 --undefined-- 45.714
5.18 --undefined-- 46.652
5.19 --undefined-- 48.064
5.20 --undefined-- 48.955
5.21 --undefined-- 49.052
5.22 --undefined-- 48.141
5.23 --undefined-- --undefined--
5.24 --undefined-- --undefined--
5.25 --undefined-- --undefined--
5.26 --undefined-- --undefined--
