Time Pitch Intensity
0.01 --undefined-- --undefined--
0.02 --undefined-- --undefined--
0.03 --undefined-- --undefined--
0.04 --undefined-- --undefined--
0.05 --undefined-- 60.033
0.06 --undefined-- 67.827
0.07 --undefined-- 70.764
0.08 --undefined-- 70.046
0.09 234.963 70.159
0.10 233.022 72.688
0.11 232.714 74.196
0.12 231.558 74.778
0.13 229.479 74.354
0.14 227.229 73.242
0.15 225.850 72.510
0.16 225.781 72.141
0.17 227.428 71.621
0.18 233.127 71.510
0.19 236.737 72.078
0.20 237.065 72.097
0.21 237.905 71.115
0.22 238.900 70.151
0.23 240.175 70.007
0.24 240.868 70.211
0.25 241.223 70.318
0.26 242.949 70.589
0.27 240.603 70.578
0.28 237.259 69.366
0.29 234.008 66.593
0.30 230.994 62.324
0.31 --undefined-- 58.484
0.32 --undefined-- 57.493
0.33 --undefined-- 56.813
0.34 --undefined-- 55.196
0.35 --undefined-- 53.292
0.36 --undefined-- 53.674
0.37 --undefined-- 61.572
0.38 256.918 69.358
0.39 251.773 73.454
0.40 247.217 74.502
0.41 237.550 73.566
0.42 228.058 72.320
0.43 223.610 72.190
0.44 221.098 72.694
0.45 218.635 72.923
0.46 217.449 72.432
0.47 219.112 70.671
0.48 219.316 66.997
0.49 208.370 61.043
0.50 195.059 55.641
0.51 204.351 60.192
0.52 207.828 66.504
0.53 203.242 69.769
0.54 191.191 70.414
0.55 179.101 69.752
0.56 171.676 67.891
0.57 166.789 63.666
0.58 --undefined-- 57.043
0.59 --undefined-- 52.144
0.60 --undefined-- 50.627
0.61 --undefined-- 49.823
0.62 --undefined-- 49.072
0.63 --undefined-- 50.673
0.64 --undefined-- 59.155
0.65 --undefined-- 66.168
0.66 --undefined-- 70.089
0.67 --undefined-- 71.449
0.68 --undefined-- 71.045
0.69 --undefined-- 69.977
0.70 --undefined-- 68.370
0.71 --undefined-- 66.258
0.72 --undefined-- 64.262
0.73 --undefined-- 62.734
0.74 --undefined-- 61.076
0.75 98.667 59.179
0.76 112.438 57.813
0.77 112.743 57.703
0.78 113.379 57.609
0.79 113.460 56.544
0.80 112.481 53.870
0.81 --undefined-- 49.506
0.82 --undefined-- 48.589
0.83 --undefined-- 57.322
0.84 --undefined-- 62.522
0.85 --undefined-- 63.589
0.86 --undefined-- 62.640
0.87 --undefined-- 63.331
0.88 --undefined-- 65.497
0.89 --undefined-- 67.878
0.90 --undefined-- 68.414
0.91 --undefined-- 67.323
0.92 --undefined-- 67.432
0.93 --undefined-- 67.367
0.94 --undefined-- 67.010
0.95 --undefined-- 68.038
0.96 --undefined-- 68.655
0.97 145.392 68.198
0.98 144.940 67.058
0.99 143.183 65.913
1.00 142.687 64.999
1.01 142.272 64.256
1.02 142.786 63.748
1.03 144.094 63.534
1.04 146.284 63.576
1.05 149.478 63.810
1.06 152.631 64.105
1.07 155.515 64.791
1.08 157.513 65.782
1.09 158.635 66.553
1.10 159.499 67.061
1.11 160.355 67.379
1.12 161.518 67.546
1.13 162.522 67.483
1.14 164.101 67.165
1.15 164.993 66.566
1.16 164.617 65.547
1.17 162.344 64.004
1.18 156.557 61.370
1.19 149.487 56.687
1.20 --undefined-- 49.790
1.21 --undefined-- 44.128
1.22 --undefined-- 43.270
1.23 --undefined-- 46.464
1.24 --undefined-- 53.309
1.25 179.004 60.789
1.26 185.936 66.040
1.27 143.826 68.499
1.28 140.180 68.360
1.29 --undefined-- 65.998
1.30 --undefined-- 62.432
1.31 --undefined-- 59.892
1.32 --undefined-- 58.977
1.33 --undefined-- 58.923
1.34 --undefined-- 60.067
1.35 --undefined-- 61.058
1.36 --undefined-- 61.139
1.37 --undefined-- 61.296
1.38 --undefined-- 62.758
1.39 --undefined-- 64.263
1.40 --undefined-- 65.115
1.41 129.225 65.607
1.42 126.376 66.022
1.43 125.174 66.004
1.44 125.697 65.019
1.45 126.775 63.484
1.46 124.515 62.286
1.47 122.972 61.495
1.48 121.476 60.685
1.49 121.019 59.798
1.50 120.381 58.827
1.51 119.540 58.001
1.52 119.145 57.233
1.53 --undefined-- 56.034
1.54 --undefined-- 54.077
1.55 --undefined-- 50.848
1.56 --undefined-- 47.121
1.57 --undefined-- 44.450
1.58 --undefined-- 42.010
1.59 --undefined-- 39.792
1.60 --undefined-- 38.629
1.61 --undefined-- 38.671
1.62 --undefined-- 39.186
1.63 --undefined-- 39.509
1.64 --undefined-- 40.036
1.65 --undefined-- 41.082
1.66 --undefined-- 41.649
1.67 --undefined-- 41.287
1.68 --undefined-- 41.018
1.69 --undefined-- 41.262
1.70 --undefined-- 41.936
1.71 --undefined-- 42.541
1.72 --undefined-- 42.080
1.73 --undefined-- 40.413
1.74 --undefined-- 42.021
1.75 --undefined-- 49.102
1.76 --undefined-- 53.694
1.77 78.684 55.331
1.78 78.712 55.383
1.79 77.365 55.591
1.80 75.728 56.559
1.81 137.268 57.446
1.82 135.006 61.558
1.83 --undefined-- 66.924
1.84 --undefined-- 69.459
1.85 133.854 69.654
1.86 131.294 68.848
1.87 129.876 67.669
1.88 128.925 66.425
1.89 129.142 65.638
1.90 128.595 65.202
1.91 128.032 65.357
1.92 128.600 65.849
1.93 127.474 65.559
1.94 125.714 64.666
1.95 126.873 64.307
1.96 126.572 64.511
1.97 126.274 64.706
1.98 126.551 64.552
1.99 127.074 64.887
2.00 132.498 67.446
2.01 136.778 70.225
2.02 135.138 71.693
2.03 135.683 72.096
2.04 137.397 71.437
2.05 142.117 70.285
2.06 147.605 70.069
2.07 153.998 70.219
2.08 159.856 69.250
2.09 172.210 67.790
2.10 179.632 68.036
2.11 185.357 69.538
2.12 194.934 71.510
2.13 206.127 73.063
2.14 208.830 72.952
2.15 199.537 71.500
2.16 187.818 71.337
2.17 181.797 71.985
2.18 169.592 71.609
2.19 161.966 70.767
2.20 156.854 69.776
2.21 153.221 68.131
2.22 150.999 65.347
2.23 148.947 60.819
2.24 --undefined-- 54.098
2.25 --undefined-- 47.801
2.26 --undefined-- 47.250
2.27 --undefined-- 50.117
2.28 --undefined-- 54.060
2.29 --undefined-- 58.820
2.30 202.260 63.442
2.31 194.806 66.122
2.32 188.936 66.895
2.33 184.429 66.027
2.34 179.854 63.187
2.35 173.596 58.022
2.36 --undefined-- 51.039
2.37 --undefined-- 44.846
2.38 --undefined-- 44.730
2.39 --undefined-- 50.220
2.40 --undefined-- 54.416
2.41 --undefined-- 55.168
2.42 --undefined-- 53.093
2.43 --undefined-- 51.874
2.44 --undefined-- 52.744
2.45 --undefined-- 52.833
2.46 --undefined-- 52.499
2.47 --undefined-- 53.264
2.48 --undefined-- 54.619
2.49 --undefined-- 55.398
2.50 --undefined-- 54.684
2.51 --undefined-- 53.515
2.52 --undefined-- 57.679
2.53 --undefined-- 62.560
2.54 --undefined-- 65.374
2.55 --undefined-- 66.303
2.56 --undefined-- 65.884
2.57 --undefined-- 63.783
2.58 --undefined-- 59.111
2.59 --undefined-- 54.798
2.60 --undefined-- 54.079
2.61 --undefined-- 51.539
2.62 --undefined-- 46.776
2.63 --undefined-- 43.380
2.64 --undefined-- 42.810
2.65 --undefined-- 47.596
2.66 --undefined-- 52.743
2.67 --undefined-- 54.933
2.68 --undefined-- 54.682
2.69 --undefined-- 53.610
2.70 --undefined-- 57.734
2.71 --undefined-- 63.009
2.72 --undefined-- 66.372
2.73 --undefined-- 68.413
2.74 --undefined-- 69.346
2.75 --undefined-- 69.699
2.76 108.791 69.857
2.77 111.493 69.489
2.78 111.718 68.500
2.79 --undefined-- 67.819
2.80 --undefined-- 66.217
2.81 --undefined-- 62.262
2.82 --undefined-- 59.813
2.83 --undefined-- 59.584
2.84 --undefined-- 56.692
2.85 --undefined-- 50.463
2.86 --undefined-- 46.362
2.87 --undefined-- 45.489
2.88 --undefined-- 44.878
2.89 --undefined-- 43.983
2.90 --undefined-- 42.564
2.91 --undefined-- 40.886
2.92 --undefined-- 39.257
2.93 --undefined-- 38.333
2.94 --undefined-- 38.054
2.95 --undefined-- 38.280
2.96 --undefined-- 41.115
2.97 --undefined-- 45.810
2.98 --undefined-- 49.968
2.99 --undefined-- 54.737
3.00 --undefined-- 61.441
3.01 --undefined-- 66.951
3.02 200.808 70.613
3.03 196.676 72.223
3.04 193.561 71.383
3.05 189.953 68.391
3.06 --undefined-- 65.519
3.07 --undefined-- 65.260
3.08 --undefined-- 65.877
3.09 --undefined-- 64.838
3.10 --undefined-- 62.250
3.11 --undefined-- 60.988
3.12 --undefined-- 60.982
3.13 --undefined-- 61.540
3.14 --undefined-- 62.183
3.15 --undefined-- 64.125
3.16 --undefined-- 67.680
3.17 --undefined-- 70.156
3.18 164.808 70.721
3.19 158.285 70.236
3.20 155.718 69.943
3.21 153.257 69.977
3.22 150.683 69.944
3.23 147.127 69.467
3.24 143.743 67.893
3.25 141.379 64.676
3.26 141.557 61.155
3.27 141.842 60.027
3.28 141.317 58.587
3.29 --undefined-- 55.514
3.30 --undefined-- 53.410
3.31 --undefined-- 54.122
3.32 --undefined-- 55.792
3.33 --undefined-- 57.272
3.34 --undefined-- 58.266
3.35 --undefined-- 59.399
3.36 --undefined-- 60.491
3.37 --undefined-- 61.564
3.38 --undefined-- 63.764
3.39 --undefined-- 66.320
3.40 --undefined-- 67.697
3.41 --undefined-- 67.574
3.42 --undefined-- 65.925
3.43 --undefined-- 64.137
3.44 --undefined-- 63.050
3.45 --undefined-- 62.660
3.46 --undefined-- 63.034
3.47 --undefined-- 62.073
3.48 --undefined-- 58.556
3.49 --undefined-- 52.690
3.50 --undefined-- 45.686
3.51 --undefined-- 41.074
3.52 --undefined-- 40.983
3.53 --undefined-- 41.271
3.54 --undefined-- 40.875
3.55 --undefined-- 39.710
3.56 --undefined-- 40.489
3.57 --undefined-- 48.476
3.58 --undefined-- 53.816
3.59 --undefined-- 54.976
3.60 --undefined-- 52.893
3.61 --undefined-- 50.355
3.62 --undefined-- 49.400
3.63 --undefined-- 48.975
3.64 --undefined-- 48.290
3.65 --undefined-- 47.433
3.66 --undefined-- 50.661
3.67 --undefined-- 55.352
3.68 --undefined-- 57.501
3.69 --undefined-- 57.946
3.70 --undefined-- 57.524
3.71 --undefined-- 55.824
3.72 --undefined-- 52.967
3.73 --undefined-- 50.457
3.74 --undefined-- 48.411
3.75 --undefined-- 44.451
3.76 --undefined-- 40.270
3.77 --undefined-- 39.595
3.78 --undefined-- 40.231
3.79 --undefined-- 40.745
3.80 --undefined-- 42.206
3.81 --undefined-- 43.982
3.82 --undefined-- 44.857
3.83 --undefined-- 44.696
3.84 --undefined-- 43.839
3.85 --undefined-- 41.705
3.86 --undefined-- 38.678
3.87 --undefined-- 37.746
3.88 --undefined-- 38.104
3.89 --undefined-- 38.091
3.90 --undefined-- 38.463
3.91 --undefined-- 39.159
3.92 --undefined-- 39.508
3.93 --undefined-- 39.664
3.94 --undefined-- 40.215
3.95 --undefined-- 40.039
3.96 --undefined-- 39.217
3.97 --undefined-- 39.213
3.98 --undefined-- 39.861
3.99 --undefined-- 41.164
4.00 --undefined-- 42.177
4.01 --undefined-- 42.294
4.02 --undefined-- 42.037
4.03 --undefined-- 42.084
4.04 --undefined-- 42.133
4.05 --undefined-- 41.675
4.06 --undefined-- 40.868
4.07 --undefined-- 40.685
4.08 --undefined-- 40.960
4.09 --undefined-- 40.545
4.10 --undefined-- 39.558
4.11 --undefined-- 38.495
4.12 --undefined-- 38.122
4.13 --undefined-- 38.777
4.14 --undefined-- 38.767
4.15 --undefined-- 38.114
4.16 --undefined-- 40.511
4.17 --undefined-- 52.476
4.18 --undefined-- 61.073
4.19 --undefined-- 65.599
4.20 --undefined-- 68.481
4.21 158.616 70.909
4.22 155.028 72.178
4.23 153.422 72.313
4.24 152.352 71.964
4.25 150.810 71.583
4.26 149.663 71.317
4.27 149.535 71.124
4.28 149.900 70.781
4.29 150.369 70.350
4.30 150.629 70.138
4.31 150.195 70.175
4.32 149.219 70.054
4.33 147.974 69.375
4.34 145.910 67.557
4.35 142.823 63.786
4.36 144.556 58.782
4.37 148.559 55.582
4.38 154.288 56.097
4.39 170.234 60.416
4.40 185.616 65.525
4.41 188.661 69.085
4.42 192.419 71.016
4.43 197.725 72.040
4.44 203.683 72.643
4.45 207.765 73.102
4.46 209.698 73.364
4.47 210.960 73.314
4.48 212.662 72.937
4.49 214.569 72.060
4.50 216.124 70.251
4.51 217.161 67.147
4.52 214.842 62.581
4.53 217.614 56.661
4.54 --undefined-- 50.585
4.55 --undefined-- 46.891
4.56 --undefined-- 44.939
4.57 --undefined-- 42.999
4.58 --undefined-- 42.291
4.59 --undefined-- 44.052
4.60 --undefined-- 46.446
4.61 --undefined-- 48.094
4.62 --undefined-- 48.842
4.63 --undefined-- 48.308
4.64 --undefined-- 47.178
4.65 --undefined-- 47.445
4.66 --undefined-- 48.276
4.67 --undefined-- 48.131
4.68 --undefined-- 47.642
4.69 --undefined-- 47.423
4.70 --undefined-- 47.058
4.71 --undefined-- 46.155
4.72 --undefined-- 45.041
4.73 --undefined-- 44.419
4.74 --undefined-- 44.416
4.75 --undefined-- 43.944
4.76 --undefined-- 42.636
4.77 --undefined-- 40.899
4.78 --undefined-- 39.322
4.79 --undefined-- 38.926
4.80 --undefined-- 40.797
4.81 --undefined-- 41.981
4.82 --undefined-- 41.194
4.83 --undefined-- 40.483
4.84 --undefined-- 40.161
4.85 --undefined-- 39.596
4.86 --undefined-- 39.280
4.87 --undefined-- 39.402
4.88 --undefined-- 39.929
4.89 --undefined-- 40.490
4.90 --undefined-- 41.225
4.91 --undefined-- 51.123
4.92 --undefined-- 61.863
4.93 --undefined-- 67.573
4.94 --undefined-- 68.913
4.95 --undefined-- 68.082
4.96 189.704 68.819
4.97 186.120 69.840
4.98 184.471 69.559
4.99 186.306 68.410
5.00 189.117 67.399
5.01 189.870 65.525
5.02 186.627 60.946
5.03 --undefined-- 53.168
5.04 --undefined-- 50.305
5.05 --undefined-- 55.006
5.06 213.823 61.127
5.07 212.077 65.937
5.08 211.518 68.434
5.09 211.162 69.017
5.10 210.773 68.494
5.11 210.385 67.585
5.12 209.637 66.654
5.13 208.553 65.968
5.14 206.929 65.833
5.15 206.655 66.133
5.16 206.443 66.361
5.17 206.019 66.407
5.18 205.970 66.262
5.19 206.441 65.943
5.20 206.475 65.606
5.21 207.185 65.295
5.22 208.026 65.123
5.23 209.346 65.116
5.24 210.661 65.165
5.25 211.796 65.272
5.26 213.168 65.500
5.27 214.415 65.915
5.28 216.310 66.809
5.29 217.834 68.284
5.30 218.169 69.834
5.31 216.762 70.944
5.32 214.643 71.181
5.33 213.475 70.529
5.34 218.489 69.014
5.35 226.228 66.402
5.36 209.025 63.288
5.37 --undefined-- 60.383
5.38 --undefined-- 57.508
5.39 --undefined-- 55.808
5.40 --undefined-- 55.884
5.41 --undefined-- 57.669
5.42 --undefined-- 59.491
5.43 --undefined-- 59.610
5.44 --undefined-- 58.204
5.45 --undefined-- 57.815
5.46 --undefined-- 62.237
5.47 --undefined-- 66.722
5.48 --undefined-- 67.871
5.49 --undefined-- 67.091
5.50 --undefined-- 66.642
5.51 --undefined-- 64.816
5.52 --undefined-- 63.698
5.53 --undefined-- 67.142
5.54 --undefined-- 69.777
5.55 --undefined-- 70.479
5.56 --undefined-- 70.172
5.57 125.516 69.272
5.58 117.563 67.824
5.59 112.477 65.960
5.60 103.281 63.377
5.61 100.296 60.296
5.62 95.061 57.001
5.63 90.864 53.629
5.64 --undefined-- 51.505
5.65 --undefined-- 50.915
5.66 --undefined-- 51.434
5.67 --undefined-- 53.634
5.68 --undefined-- 55.523
5.69 --undefined-- 54.903
5.70 --undefined-- 51.414
5.71 --undefined-- 45.634
5.72 --undefined-- 41.576
5.73 --undefined-- 42.780
5.74 --undefined-- 43.648
5.75 --undefined-- 43.100
5.76 --undefined-- 44.692
5.77 --undefined-- 47.376
5.78 --undefined-- 50.633
5.79 --undefined-- 58.513
5.80 --undefined-- 66.098
5.81 151.834 70.493
5.82 149.037 72.296
5.83 147.505 72.612
5.84 147.061 72.242
5.85 147.559 71.714
5.86 149.747 71.902
5.87 154.602 --undefined--
5.88 159.743 --undefined--
5.89 --undefined-- --undefined--
5.90 --undefined-- --undefined--
