Time Pitch Intensity
0.01 --undefined-- --undefined--
0.02 97.815 --undefined--
0.03 95.474 --undefined--
0.04 105.031 --undefined--
0.05 106.042 74.758
0.06 108.261 75.594
0.07 110.835 75.879
0.08 113.789 76.018
0.09 117.770 76.113
0.10 122.346 76.077
0.11 126.508 75.967
0.12 132.345 75.725
0.13 135.216 75.187
0.14 133.696 74.139
0.15 130.835 72.228
0.16 132.037 69.150
0.17 125.995 64.472
0.18 123.831 58.783
0.19 --undefined-- 63.626
0.20 --undefined-- 69.796
0.21 --undefined-- 72.361
0.22 --undefined-- 74.427
0.23 156.299 76.781
0.24 151.484 77.533
0.25 144.927 77.296
0.26 141.922 77.175
0.27 141.008 77.297
0.28 141.110 77.337
0.29 141.451 76.976
0.30 140.981 76.424
0.31 140.671 76.039
0.32 139.813 75.821
0.33 139.241 75.740
0.34 139.211 75.789
0.35 139.842 75.847
0.36 140.438 75.821
0.37 141.555 75.800
0.38 142.799 75.852
0.39 143.461 75.980
0.40 144.030 76.170
0.41 144.029 76.354
0.42 143.824 76.452
0.43 143.505 76.488
0.44 143.181 76.532
0.45 142.980 76.593
0.46 142.672 76.703
0.47 142.294 76.819
0.48 141.957 76.810
0.49 141.312 76.705
0.50 140.345 76.615
0.51 136.853 76.161
0.52 133.197 74.540
0.53 133.655 71.110
0.54 --undefined-- 65.677
0.55 --undefined-- 60.935
0.56 --undefined-- 60.827
0.57 --undefined-- 61.621
0.58 --undefined-- 61.911
0.59 --undefined-- 62.401
0.60 --undefined-- 63.034
0.61 --undefined-- 63.427
0.62 --undefined-- 63.366
0.63 --undefined-- 62.940
0.64 --undefined-- 62.804
0.65 --undefined-- 62.951
0.66 --undefined-- 62.617
0.67 --undefined-- 63.688
0.68 --undefined-- 70.350
0.69 153.140 75.513
0.70 147.118 77.873
0.71 141.435 78.447
0.72 138.926 78.408
0.73 135.440 78.301
0.74 131.736 78.242
0.75 129.380 78.296
0.76 127.432 78.281
0.77 125.845 78.082
0.78 124.450 77.856
0.79 123.026 77.680
0.80 121.856 77.472
0.81 121.176 77.277
0.82 119.554 77.408
0.83 117.558 77.933
0.84 117.623 78.148
0.85 108.731 77.819
0.86 106.644 77.626
0.87 102.190 77.405
0.88 98.981 76.373
0.89 98.433 74.311
0.90 89.202 71.648
0.91 88.949 69.090
0.92 87.537 66.370
0.93 --undefined-- 62.189
0.94 --undefined-- 56.418
0.95 --undefined-- 54.221
0.96 --undefined-- 56.452
0.97 --undefined-- 57.811
0.98 --undefined-- 58.109
0.99 --undefined-- 58.622
1.00 --undefined-- 60.022
1.01 --undefined-- 61.872
1.02 --undefined-- 62.440
1.03 --undefined-- 61.427
1.04 --undefined-- 61.036
1.05 --undefined-- 61.619
1.06 --undefined-- 61.092
1.07 --undefined-- 59.685
1.08 --undefined-- 58.730
1.09 --undefined-- 58.332
1.10 --undefined-- 57.675
1.11 --undefined-- 56.830
1.12 --undefined-- 56.567
1.13 --undefined-- 56.513
1.14 --undefined-- 56.007
1.15 --undefined-- 55.271
1.16 --undefined-- 55.002
1.17 --undefined-- 54.952
1.18 --undefined-- 54.194
1.19 --undefined-- 53.067
1.20 --undefined-- 52.574
1.21 --undefined-- 52.751
1.22 --undefined-- 52.852
1.23 --undefined-- 52.317
1.24 --undefined-- 50.870
1.25 --undefined-- 48.294
1.26 --undefined-- 45.128
1.27 --undefined-- 43.083
1.28 --undefined-- 44.381
1.29 --undefined-- 45.855
1.30 --undefined-- 46.294
1.31 --undefined-- 47.941
1.32 --undefined-- 51.696
1.33 --undefined-- 60.420
1.34 --undefined-- 69.678
1.35 --undefined-- 74.989
1.36 140.629 76.913
1.37 134.338 77.110
1.38 128.660 77.240
1.39 124.221 77.420
1.40 122.860 77.573
1.41 121.502 77.650
1.42 120.503 77.608
1.43 119.517 77.595
1.44 119.322 77.605
1.45 120.858 77.155
1.46 123.244 76.281
1.47 127.763 75.735
1.48 132.616 75.329
1.49 132.130 74.605
1.50 131.677 74.603
1.51 149.200 76.340
1.52 151.290 77.576
1.53 155.311 77.653
1.54 157.489 77.426
1.55 159.218 77.323
1.56 160.013 77.181
1.57 158.784 76.465
1.58 154.929 74.530
1.59 142.311 71.155
1.60 154.404 67.770
1.61 163.586 65.438
1.62 158.428 62.013
1.63 159.032 58.661
1.64 --undefined-- 64.563
1.65 --undefined-- 69.838
1.66 --undefined-- 73.416
1.67 --undefined-- 76.127
1.68 --undefined-- 77.194
1.69 134.777 77.142
1.70 132.833 77.115
1.71 131.843 77.446
1.72 131.031 77.760
1.73 129.413 77.794
1.74 127.256 77.677
1.75 125.370 77.558
1.76 123.654 77.524
1.77 122.820 77.538
1.78 122.771 77.587
1.79 121.267 77.504
1.80 118.456 77.050
1.81 110.938 76.040
1.82 95.900 74.313
1.83 76.666 73.044
1.84 225.584 72.080
1.85 227.097 68.682
1.86 --undefined-- 62.171
1.87 --undefined-- 59.297
1.88 --undefined-- 65.994
1.89 --undefined-- 70.955
1.90 --undefined-- 73.990
1.91 --undefined-- 75.946
1.92 --undefined-- 76.301
1.93 113.710 75.663
1.94 111.725 75.844
1.95 102.179 76.105
1.96 104.444 76.175
1.97 105.277 76.340
1.98 105.077 76.640
1.99 105.234 76.938
2.00 104.706 76.968
2.01 104.476 76.776
2.02 104.454 76.687
2.03 103.866 76.673
2.04 104.189 76.587
2.05 103.580 76.480
2.06 103.650 76.434
2.07 103.714 76.444
2.08 103.753 76.556
2.09 103.633 76.724
2.10 103.918 76.748
2.11 104.257 76.631
2.12 104.566 76.584
2.13 104.268 76.632
2.14 103.926 76.668
2.15 103.765 76.639
2.16 103.936 76.536
2.17 103.647 76.369
2.18 103.461 76.280
2.19 103.626 76.319
2.20 104.232 76.426
2.21 104.402 76.598
2.22 105.212 76.770
2.23 106.388 76.952
2.24 107.860 77.174
2.25 109.780 77.407
2.26 111.113 77.586
2.27 112.135 77.529
2.28 111.629 77.028
2.29 108.243 75.679
2.30 105.585 72.786
2.31 108.913 68.018
2.32 113.966 61.873
2.33 110.146 56.560
2.34 109.522 54.164
2.35 --undefined-- 51.971
2.36 --undefined-- 50.034
2.37 --undefined-- 48.307
2.38 --undefined-- 47.236
2.39 --undefined-- 47.448
2.40 --undefined-- 46.914
2.41 --undefined-- 45.924
2.42 --undefined-- 55.304
2.43 --undefined-- 66.491
2.44 --undefined-- 73.255
2.45 --undefined-- 76.344
2.46 164.472 76.992
2.47 163.778 76.876
2.48 162.386 76.989
2.49 161.576 77.204
2.50 161.005 77.230
2.51 160.091 76.851
2.52 157.875 75.920
2.53 155.986 74.218
2.54 152.763 71.345
2.55 160.514 67.276
2.56 160.779 63.324
2.57 --undefined-- 61.413
2.58 --undefined-- 60.406
2.59 --undefined-- 59.062
2.60 --undefined-- 58.038
2.61 --undefined-- 57.717
2.62 --undefined-- 57.668
2.63 --undefined-- 58.112
2.64 --undefined-- 59.468
2.65 --undefined-- 60.360
2.66 --undefined-- 60.903
2.67 --undefined-- 64.444
2.68 --undefined-- 71.586
2.69 --undefined-- 75.964
2.70 161.261 77.250
2.71 160.964 77.152
2.72 157.946 77.217
2.73 155.071 77.260
2.74 153.346 77.049
2.75 152.639 76.723
2.76 151.696 76.326
2.77 150.443 75.665
2.78 148.397 74.034
2.79 141.500 70.542
2.80 147.631 65.625
2.81 152.971 62.173
2.82 153.725 59.384
2.83 150.909 55.883
2.84 150.248 52.992
2.85 --undefined-- 50.391
2.86 --undefined-- 48.459
2.87 --undefined-- 47.085
2.88 --undefined-- 44.869
2.89 --undefined-- 43.324
2.90 --undefined-- 46.721
2.91 --undefined-- 54.148
2.92 --undefined-- 59.046
2.93 --undefined-- 61.379
2.94 --undefined-- 62.664
2.95 --undefined-- 63.298
2.96 --undefined-- 62.745
2.97 --undefined-- 61.791
2.98 --undefined-- 61.953
2.99 --undefined-- 63.644
3.00 --undefined-- 69.324
3.01 165.147 74.959
3.02 169.067 77.568
3.03 161.583 77.713
3.04 157.133 77.129
3.05 154.074 76.861
3.06 152.223 76.696
3.07 151.004 76.618
3.08 149.778 76.574
3.09 148.461 76.509
3.10 147.170 76.454
3.11 146.252 76.399
3.12 145.471 76.378
3.13 145.309 76.478
3.14 145.231 76.649
3.15 144.627 76.847
3.16 144.711 77.073
3.17 145.622 77.188
3.18 145.340 77.208
3.19 145.501 77.374
3.20 145.740 77.684
3.21 145.856 77.953
3.22 146.313 78.064
3.23 146.728 78.020
3.24 146.571 77.939
3.25 146.606 77.908
3.26 146.232 77.901
3.27 145.823 77.871
3.28 145.194 77.844
3.29 145.173 77.868
3.30 145.658 77.885
3.31 145.776 77.793
3.32 145.801 77.536
3.33 145.620 77.089
3.34 146.076 76.372
3.35 145.981 75.084
3.36 144.413 72.943
3.37 --undefined-- 70.459
3.38 --undefined-- 67.741
3.39 76.944 64.679
3.40 77.092 62.671
3.41 --undefined-- 60.413
3.42 --undefined-- 57.803
3.43 --undefined-- 54.543
3.44 --undefined-- 49.109
3.45 --undefined-- 44.952
3.46 --undefined-- 43.707
3.47 --undefined-- 42.532
3.48 --undefined-- 41.314
3.49 --undefined-- 49.374
3.50 --undefined-- 58.992
3.51 --undefined-- 64.510
3.52 78.999 68.182
3.53 139.712 71.053
3.54 142.669 72.745
3.55 146.808 73.662
3.56 149.774 74.537
3.57 153.470 75.628
3.58 155.022 76.728
3.59 154.433 77.466
3.60 152.968 77.758
3.61 150.442 77.965
3.62 146.994 78.254
3.63 147.535 78.433
3.64 148.414 78.421
3.65 148.430 78.335
3.66 146.854 78.379
3.67 144.841 78.530
3.68 142.059 78.612
3.69 139.900 78.514
3.70 136.858 78.264
3.71 134.832 78.101
3.72 134.050 78.210
3.73 133.604 78.305
3.74 132.673 78.177
3.75 132.012 77.999
3.76 131.780 77.953
3.77 131.927 78.002
3.78 131.679 78.015
3.79 131.953 77.954
3.80 132.131 77.771
3.81 133.368 77.352
3.82 134.978 76.507
3.83 137.147 74.922
3.84 133.268 71.946
3.85 --undefined-- 67.155
3.86 --undefined-- 61.785
3.87 --undefined-- 57.787
3.88 --undefined-- 53.009
3.89 --undefined-- 47.323
3.90 --undefined-- 48.471
3.91 --undefined-- 57.418
3.92 --undefined-- 64.394
3.93 --undefined-- 67.031
3.94 --undefined-- 66.516
3.95 --undefined-- 70.219
3.96 150.779 75.226
3.97 151.298 77.166
3.98 121.156 77.144
3.99 120.661 76.791
4.00 113.667 76.487
4.01 111.128 76.471
4.02 109.794 76.721
4.03 107.388 76.955
4.04 107.174 77.132
4.05 106.946 77.298
4.06 106.769 77.438
4.07 106.111 77.466
4.08 105.732 77.382
4.09 106.158 77.283
4.10 107.338 77.082
4.11 109.354 76.658
4.12 109.902 76.301
4.13 112.702 76.260
4.14 113.423 76.604
4.15 119.384 77.364
4.16 119.296 78.028
4.17 120.378 78.313
4.18 122.106 78.265
4.19 122.972 77.746
4.20 123.472 76.473
4.21 122.745 74.010
4.22 122.350 69.952
4.23 123.124 64.526
4.24 122.875 59.527
4.25 124.177 56.789
4.26 122.602 56.417
4.27 --undefined-- 61.463
4.28 --undefined-- 66.775
4.29 --undefined-- 71.387
4.30 --undefined-- 74.961
4.31 130.617 76.727
4.32 123.944 77.196
4.33 118.977 77.231
4.34 114.972 77.160
4.35 112.396 77.297
4.36 110.947 77.554
4.37 108.387 77.578
4.38 107.066 77.370
4.39 106.124 77.152
4.40 105.985 77.011
4.41 107.239 76.980
4.42 107.968 77.149
4.43 107.879 77.276
4.44 105.528 76.872
4.45 104.440 75.620
4.46 --undefined-- 74.246
4.47 --undefined-- 74.042
4.48 --undefined-- 72.398
4.49 --undefined-- 67.808
4.50 --undefined-- 67.928
4.51 --undefined-- 72.564
4.52 --undefined-- 74.715
4.53 --undefined-- 75.171
4.54 96.820 75.292
4.55 95.459 75.092
4.56 96.386 74.878
4.57 98.127 75.022
4.58 96.519 75.320
4.59 94.362 75.543
4.60 95.441 75.735
4.61 94.791 75.928
4.62 94.626 76.003
4.63 95.313 75.881
4.64 96.416 75.721
4.65 96.924 75.376
4.66 96.577 74.474
4.67 97.027 73.157
4.68 98.774 72.106
4.69 100.197 72.058
4.70 101.609 72.708
4.71 102.251 73.429
4.72 102.950 73.958
4.73 103.431 74.365
4.74 103.895 74.787
4.75 105.054 75.268
4.76 105.387 75.818
4.77 106.814 76.501
4.78 108.731 77.359
4.79 110.414 77.850
4.80 111.657 77.131
4.81 110.907 74.820
4.82 --undefined-- 71.226
4.83 --undefined-- 66.551
4.84 113.462 60.417
4.85 112.839 53.820
4.86 --undefined-- 50.306
4.87 --undefined-- 48.196
4.88 --undefined-- 45.868
4.89 --undefined-- 43.322
4.90 --undefined-- 41.738
4.91 --undefined-- 41.326
4.92 --undefined-- 40.927
4.93 --undefined-- 39.547
4.94 --undefined-- 38.252
4.95 --undefined-- 38.621
4.96 --undefined-- 39.758
4.97 --undefined-- 39.740
4.98 --undefined-- 38.894
4.99 --undefined-- 38.084
5.00 --undefined-- 38.485
5.01 --undefined-- 40.465
5.02 --undefined-- 42.582
5.03 --undefined-- 52.522
5.04 --undefined-- 63.191
5.05 --undefined-- 69.585
5.06 124.171 73.409
5.07 124.261 75.774
5.08 120.872 76.972
5.09 117.340 77.223
5.10 114.941 77.218
5.11 112.773 77.281
5.12 111.317 77.392
5.13 107.823 77.643
5.14 104.569 78.009
5.15 101.931 77.970
5.16 100.164 77.510
5.17 99.926 77.298
5.18 100.163 77.455
5.19 99.149 77.573
5.20 98.567 77.540
5.21 97.865 77.450
5.22 96.866 77.433
5.23 96.590 77.431
5.24 97.507 77.220
5.25 100.613 77.080
5.26 101.632 77.204
5.27 101.558 77.410
5.28 101.346 77.561
5.29 101.156 77.584
5.30 100.765 77.404
5.31 100.708 76.935
5.32 102.326 --undefined--
5.33 103.814 --undefined--
5.34 --undefined-- --undefined--
5.35 --undefined-- --undefined--
