Time Pitch Intensity
0.01 --undefined-- --undefined--
0.02 213.003 --undefined--
0.03 215.305 --undefined--
0.04 216.243 --undefined--
0.05 218.140 68.958
0.06 220.113 68.531
0.07 220.741 67.661
0.08 216.351 65.262
0.09 216.118 60.809
0.10 --undefined-- 54.211
0.11 --undefined-- 46.819
0.12 --undefined-- 42.512
0.13 --undefined-- 44.799
0.14 --undefined-- 55.150
0.15 --undefined-- 63.630
0.16 266.338 68.415
0.17 263.535 70.458
0.18 262.767 71.104
0.19 261.973 71.460
0.20 260.412 71.842
0.21 258.677 72.166
0.22 256.939 72.303
0.23 255.165 72.179
0.24 253.689 71.784
0.25 252.765 71.174
0.26 253.076 70.415
0.27 254.017 69.788
0.28 254.723 69.269
0.29 252.364 68.239
0.30 241.494 66.353
0.31 235.810 63.780
0.32 236.152 59.904
0.33 --undefined-- 53.968
0.34 --undefined-- 48.184
0.35 --undefined-- 48.264
0.36 --undefined-- 53.128
0.37 --undefined-- 61.292
0.38 233.163 67.294
0.39 224.751 70.007
0.40 212.856 70.341
0.41 201.273 69.782
0.42 195.256 69.679
0.43 190.432 69.836
0.44 185.742 69.720
0.45 181.067 69.379
0.46 178.321 69.092
0.47 176.647 69.054
0.48 176.613 69.128
0.49 176.681 69.109
0.50 176.730 69.052
0.51 177.384 68.955
0.52 178.606 68.850
0.53 179.810 68.747
0.54 180.631 68.629
0.55 180.651 68.567
0.56 180.207 68.486
0.57 178.386 67.960
0.58 174.691 66.259
0.59 172.413 62.647
0.60 176.983 56.687
0.61 --undefined-- 48.991
0.62 --undefined-- 43.989
0.63 --undefined-- 42.725
0.64 --undefined-- 44.401
0.65 --undefined-- 47.383
0.66 --undefined-- 51.721
0.67 --undefined-- 59.639
0.68 188.273 65.249
0.69 186.296 67.993
0.70 181.483 69.034
0.71 178.198 69.779
0.72 177.900 70.590
0.73 177.962 70.550
0.74 177.839 69.110
0.75 177.157 66.622
0.76 175.556 63.382
0.77 169.894 58.991
0.78 178.928 53.370
0.79 --undefined-- 46.934
0.80 --undefined-- 42.136
0.81 --undefined-- 41.151
0.82 --undefined-- 44.054
0.83 --undefined-- 48.709
0.84 --undefined-- 55.829
0.85 219.793 62.699
0.86 212.909 66.524
0.87 209.196 67.835
0.88 206.915 68.057
0.89 206.303 68.346
0.90 205.890 68.642
0.91 205.709 68.675
0.92 205.960 68.664
0.93 206.376 68.901
0.94 206.871 69.311
0.95 206.970 69.631
0.96 206.977 69.575
0.97 205.888 69.122
0.98 203.188 68.715
0.99 200.122 68.552
1.00 195.153 68.323
1.01 189.432 67.963
1.02 185.239 67.883
1.03 178.050 68.246
1.04 167.923 68.368
1.05 159.730 68.101
1.06 154.617 67.840
1.07 151.240 67.527
1.08 147.333 66.834
1.09 146.354 65.895
1.10 145.850 64.949
1.11 146.507 64.047
1.12 148.452 62.844
1.13 149.595 61.335
1.14 149.844 60.060
1.15 151.843 58.842
1.16 152.919 57.048
1.17 158.088 56.846
1.18 178.829 61.191
1.19 191.377 66.158
1.20 195.526 69.959
1.21 196.727 72.124
1.22 196.071 72.684
1.23 196.388 72.366
1.24 197.110 72.064
1.25 197.521 71.944
1.26 197.096 71.874
1.27 196.116 71.863
1.28 194.250 71.772
1.29 191.079 71.112
1.30 186.443 69.179
1.31 179.423 65.534
1.32 172.023 60.655
1.33 183.021 55.809
1.34 --undefined-- 50.930
1.35 --undefined-- 46.201
1.36 --undefined-- 43.672
1.37 --undefined-- 42.821
1.38 --undefined-- 41.966
1.39 --undefined-- 41.750
1.40 --undefined-- 41.527
1.41 --undefined-- 41.151
1.42 --undefined-- 40.337
1.43 --undefined-- 40.445
1.44 --undefined-- 41.647
1.45 --undefined-- 42.231
1.46 --undefined-- 41.376
1.47 --undefined-- 39.586
1.48 --undefined-- 38.360
1.49 --undefined-- 37.244
1.50 --undefined-- 34.825
1.51 --undefined-- 33.771
1.52 --undefined-- 36.849
1.53 --undefined-- 39.702
1.54 --undefined-- 40.820
1.55 --undefined-- 40.810
1.56 --undefined-- 40.524
1.57 --undefined-- 39.642
1.58 --undefined-- 39.743
1.59 --undefined-- 40.202
1.60 --undefined-- 39.580
1.61 --undefined-- 40.397
1.62 --undefined-- 43.121
1.63 --undefined-- 44.605
1.64 --undefined-- 44.049
1.65 --undefined-- 43.349
1.66 --undefined-- 44.315
1.67 --undefined-- 46.059
1.68 --undefined-- 54.598
1.69 251.934 63.550
1.70 235.520 68.965
1.71 231.579 71.918
1.72 229.574 73.714
1.73 229.953 75.141
1.74 230.725 76.223
1.75 232.437 76.190
1.76 233.782 74.090
1.77 219.586 69.810
1.78 215.293 64.847
1.79 230.445 59.686
1.80 235.752 53.465
1.81 --undefined-- 49.707
1.82 --undefined-- 54.222
1.83 --undefined-- 64.564
1.84 277.739 71.140
1.85 272.225 74.278
1.86 268.221 75.208
1.87 267.063 75.553
1.88 266.453 75.893
1.89 265.443 75.938
1.90 263.762 75.758
1.91 263.119 75.577
1.92 263.663 75.480
1.93 264.257 75.435
1.94 265.608 75.401
1.95 267.408 75.454
1.96 268.960 75.588
1.97 267.138 75.618
1.98 262.983 75.432
1.99 259.045 74.589
2.00 251.642 72.199
2.01 243.901 67.373
2.02 --undefined-- 59.579
2.03 --undefined-- 51.037
2.04 --undefined-- 52.286
2.05 --undefined-- 54.039
2.06 --undefined-- 59.593
2.07 --undefined-- 66.636
2.08 220.228 70.485
2.09 209.658 71.792
2.10 202.123 71.811
2.11 195.543 71.575
2.12 190.405 71.387
2.13 186.514 71.193
2.14 183.521 70.935
2.15 180.632 70.625
2.16 179.333 70.421
2.17 178.472 70.432
2.18 178.515 70.353
2.19 178.402 69.926
2.20 177.142 68.617
2.21 172.539 65.631
2.22 175.833 60.678
2.23 --undefined-- 53.741
2.24 --undefined-- 45.067
2.25 --undefined-- 43.847
2.26 --undefined-- 48.214
2.27 --undefined-- 50.470
2.28 --undefined-- 50.149
2.29 --undefined-- 48.239
2.30 --undefined-- 46.294
2.31 --undefined-- 45.833
2.32 --undefined-- 45.997
2.33 --undefined-- 45.741
2.34 --undefined-- 45.649
2.35 --undefined-- 45.895
2.36 --undefined-- 45.797
2.37 --undefined-- 45.293
2.38 --undefined-- 49.112
2.39 --undefined-- 59.262
2.40 214.116 66.288
2.41 215.206 70.088
2.42 212.802 71.858
2.43 209.893 72.817
2.44 208.339 73.575
2.45 207.151 74.156
2.46 206.129 74.544
2.47 204.937 74.741
2.48 203.592 74.779
2.49 202.747 74.751
2.50 202.915 74.697
2.51 202.982 74.543
2.52 203.453 74.140
2.53 203.211 73.396
2.54 201.480 72.355
2.55 199.177 71.024
2.56 197.133 69.157
2.57 193.669 66.639
2.58 189.885 64.369
2.59 190.493 63.572
2.60 192.307 64.398
2.61 193.991 66.471
2.62 193.295 68.626
2.63 189.429 70.154
2.64 184.192 71.309
2.65 181.020 72.099
2.66 178.110 72.396
2.67 176.662 72.496
2.68 175.404 72.386
2.69 173.841 72.055
2.70 171.673 71.570
2.71 169.713 70.903
2.72 168.198 70.296
2.73 167.283 69.893
2.74 166.322 69.621
2.75 165.096 69.351
2.76 164.203 69.112
2.77 163.926 69.018
2.78 163.802 68.873
2.79 164.873 68.618
2.80 166.420 68.513
2.81 167.104 68.513
2.82 167.360 68.353
2.83 167.960 68.182
2.84 168.546 68.030
2.85 167.438 67.502
2.86 166.557 66.462
2.87 164.325 64.585
2.88 157.528 61.141
2.89 --undefined-- 55.404
2.90 --undefined-- 47.442
2.91 --undefined-- 43.065
2.92 --undefined-- 44.200
2.93 --undefined-- 44.013
2.94 --undefined-- 46.811
2.95 --undefined-- 51.637
2.96 --undefined-- 53.359
2.97 --undefined-- 51.651
2.98 --undefined-- 47.984
2.99 --undefined-- 46.736
3.00 --undefined-- 53.523
3.01 169.673 61.928
3.02 177.000 67.167
3.03 171.732 69.651
3.04 163.090 70.299
3.05 155.710 70.016
3.06 150.146 69.646
3.07 148.680 69.582
3.08 147.968 69.548
3.09 147.899 69.476
3.10 148.176 69.450
3.11 148.520 69.444
3.12 149.129 69.438
3.13 149.035 69.380
3.14 149.205 69.344
3.15 149.351 69.231
3.16 149.355 68.855
3.17 150.869 68.161
3.18 150.881 66.822
3.19 149.483 64.487
3.20 148.589 61.085
3.21 146.551 56.272
3.22 --undefined-- 49.575
3.23 --undefined-- 43.085
3.24 --undefined-- 41.031
3.25 --undefined-- 46.700
3.26 --undefined-- 52.824
3.27 --undefined-- 56.749
3.28 --undefined-- 61.718
3.29 204.923 66.321
3.30 200.593 68.922
3.31 199.640 70.306
3.32 198.175 71.170
3.33 197.052 71.602
3.34 196.654 71.597
3.35 197.246 71.202
3.36 198.012 70.665
3.37 199.233 70.310
3.38 200.321 70.199
3.39 200.819 70.235
3.40 201.502 70.506
3.41 203.018 71.019
3.42 204.208 71.461
3.43 205.681 71.701
3.44 208.189 71.784
3.45 208.764 71.753
3.46 209.472 71.821
3.47 211.861 71.828
3.48 211.925 71.132
3.49 210.624 69.188
3.50 211.516 65.440
3.51 222.797 59.391
3.52 --undefined-- 51.462
3.53 --undefined-- 45.237
3.54 --undefined-- 43.912
3.55 --undefined-- 50.060
3.56 --undefined-- 59.952
3.57 264.883 66.494
3.58 262.484 69.771
3.59 259.061 70.986
3.60 257.817 71.350
3.61 257.055 71.459
3.62 255.625 71.499
3.63 253.600 71.529
3.64 251.549 71.591
3.65 249.461 71.808
3.66 248.231 72.225
3.67 247.781 72.722
3.68 249.067 72.940
3.69 251.135 72.553
3.70 252.277 71.592
3.71 252.005 70.376
3.72 249.129 68.900
3.73 235.242 66.736
3.74 229.070 63.561
3.75 237.703 58.813
3.76 --undefined-- 52.316
3.77 --undefined-- 47.201
3.78 --undefined-- 47.801
3.79 --undefined-- 50.872
3.80 --undefined-- 52.290
3.81 --undefined-- 51.275
3.82 --undefined-- 52.571
3.83 198.449 59.534
3.84 196.309 64.699
3.85 194.603 67.672
3.86 191.896 69.373
3.87 183.206 70.141
3.88 179.110 70.032
3.89 180.623 69.520
3.90 183.071 68.698
3.91 184.037 66.814
3.92 181.060 63.169
3.93 178.418 57.443
3.94 --undefined-- 49.771
3.95 --undefined-- 44.272
3.96 --undefined-- 45.022
3.97 --undefined-- 46.252
3.98 --undefined-- 49.195
3.99 --undefined-- 57.836
4.00 188.514 64.301
4.01 181.132 67.358
4.02 163.855 68.294
4.03 150.481 68.466
4.04 143.969 68.793
4.05 142.372 69.329
4.06 145.919 69.599
4.07 152.202 69.483
4.08 159.533 69.150
4.09 168.163 68.801
4.10 175.891 68.393
4.11 180.742 67.560
4.12 180.697 65.354
4.13 175.096 60.856
4.14 --undefined-- 53.377
4.15 --undefined-- 45.237
4.16 --undefined-- 43.236
4.17 --undefined-- 45.344
4.18 --undefined-- 47.478
4.19 --undefined-- 49.069
4.20 --undefined-- 50.041
4.21 --undefined-- 53.553
4.22 232.957 62.376
4.23 239.611 68.783
4.24 237.722 72.087
4.25 230.147 73.220
4.26 223.859 73.409
4.27 222.156 73.561
4.28 219.537 73.716
4.29 217.162 73.809
4.30 215.186 73.839
4.31 213.187 73.668
4.32 211.418 73.091
4.33 208.339 71.645
4.34 204.146 68.702
4.35 200.020 63.425
4.36 --undefined-- 55.568
4.37 --undefined-- 48.724
4.38 --undefined-- 50.294
4.39 --undefined-- 56.273
4.40 228.713 63.750
4.41 202.088 68.320
4.42 188.875 70.216
4.43 180.057 70.900
4.44 176.422 71.478
4.45 173.440 71.950
4.46 171.601 72.041
4.47 169.401 71.724
4.48 168.274 71.167
4.49 167.718 70.729
4.50 167.722 70.586
4.51 167.986 70.591
4.52 168.721 70.729
4.53 169.998 71.025
4.54 171.445 71.373
4.55 173.122 71.406
4.56 175.236 70.595
4.57 172.736 68.611
4.58 165.984 65.361
4.59 --undefined-- 61.256
4.60 --undefined-- 57.001
4.61 --undefined-- 52.896
4.62 --undefined-- 50.135
4.63 --undefined-- 48.981
4.64 138.463 50.627
4.65 158.733 54.031
4.66 177.839 57.858
4.67 195.058 61.254
4.68 208.413 63.825
4.69 215.333 65.751
4.70 220.679 67.420
4.71 225.170 68.719
4.72 228.448 69.534
4.73 232.432 69.981
4.74 236.169 70.292
4.75 239.167 70.507
4.76 241.541 70.556
4.77 242.287 70.407
4.78 241.609 70.020
4.79 238.098 69.355
4.80 234.685 68.101
4.81 231.969 65.368
4.82 240.050 60.421
4.83 243.667 53.371
4.84 244.756 48.352
4.85 --undefined-- 46.442
4.86 --undefined-- 44.846
4.87 --undefined-- 44.438
4.88 --undefined-- 45.138
4.89 --undefined-- 46.948
4.90 --undefined-- 54.688
4.91 250.666 62.270
4.92 247.864 66.799
4.93 245.401 69.182
4.94 243.754 70.274
4.95 242.329 70.664
4.96 239.864 70.337
4.97 231.050 69.334
4.98 226.687 68.388
4.99 230.516 68.460
5.00 228.745 69.440
5.01 221.619 70.168
5.02 211.519 69.920
5.03 200.306 68.862
5.04 188.437 67.593
5.05 177.645 66.606
5.06 169.568 65.911
5.07 152.790 65.492
5.08 142.838 65.594
5.09 137.022 65.817
5.10 131.377 65.839
5.11 128.713 65.778
5.12 127.103 65.623
5.13 125.301 65.381
5.14 125.130 65.297
5.15 124.184 65.419
5.16 122.643 65.499
5.17 121.422 65.584
5.18 121.610 65.875
5.19 125.215 66.060
5.20 126.650 65.834
5.21 126.974 65.359
5.22 128.588 64.830
5.23 131.470 63.903
5.24 132.001 61.924
5.25 132.781 58.548
5.26 --undefined-- 53.454
5.27 --undefined-- 46.574
5.28 --undefined-- 41.025
5.29 --undefined-- 41.278
5.30 --undefined-- 45.641
5.31 --undefined-- 49.502
5.32 --undefined-- 55.141
5.33 --undefined-- 62.897
5.34 190.314 --undefined--
5.35 188.750 --undefined--
5.36 --undefined-- --undefined--
5.37 --undefined-- --undefined--
