Time Pitch Intensity
0.01 --undefined-- --undefined--
0.02 --undefined-- --undefined--
0.03 --undefined-- --undefined--
0.04 --undefined-- --undefined--
0.05 --undefined-- 46.237
0.06 --undefined-- 46.241
0.07 --undefined-- 46.218
0.08 --undefined-- 45.972
0.09 --undefined-- 46.899
0.10 --undefined-- 48.034
0.11 --undefined-- 48.403
0.12 --undefined-- 48.278
0.13 --undefined-- 48.462
0.14 --undefined-- 49.356
0.15 --undefined-- 50.009
0.16 --undefined-- 51.067
0.17 --undefined-- 52.593
0.18 --undefined-- 53.642
0.19 --undefined-- 54.673
0.20 --undefined-- 56.815
0.21 --undefined-- 60.046
0.22 --undefined-- 63.193
0.23 105.791 65.424
0.24 105.592 66.513
0.25 105.687 66.928
0.26 105.554 66.912
0.27 105.077 66.392
0.28 104.760 65.856
0.29 104.357 65.328
0.30 103.788 64.456
0.31 104.118 63.515
0.32 104.490 62.633
0.33 104.063 61.365
0.34 103.186 59.323
0.35 101.709 56.283
0.36 100.422 53.274
0.37 100.591 51.712
0.38 99.974 51.292
0.39 99.073 51.352
0.40 95.499 51.463
0.41 92.684 52.539
0.42 --undefined-- 57.040
0.43 --undefined-- 61.295
0.44 87.974 63.593
0.45 86.996 64.951
0.46 85.219 66.275
0.47 82.186 67.572
0.48 80.187 68.789
0.49 80.116 69.688
0.50 78.727 69.852
0.51 78.930 69.112
0.52 77.784 67.400
0.53 77.955 64.907
0.54 79.486 62.164
0.55 78.248 59.399
0.56 79.200 56.991
0.57 76.956 56.050
0.58 77.194 55.256
0.59 77.514 53.852
0.60 78.763 52.052
0.61 79.967 50.811
0.62 79.958 50.169
0.63 --undefined-- 49.258
0.64 --undefined-- 48.713
0.65 --undefined-- 48.396
0.66 --undefined-- 47.645
0.67 --undefined-- 46.234
0.68 --undefined-- 43.552
0.69 --undefined-- 40.275
0.70 --undefined-- 40.419
0.71 --undefined-- 45.148
0.72 --undefined-- 51.044
0.73 --undefined-- 56.386
0.74 --undefined-- 60.023
0.75 --undefined-- 62.635
0.76 --undefined-- 64.578
0.77 --undefined-- 64.989
0.78 --undefined-- 64.764
0.79 --undefined-- 65.333
0.80 --undefined-- 64.573
0.81 --undefined-- 62.061
0.82 --undefined-- 59.509
0.83 --undefined-- 56.789
0.84 --undefined-- 54.120
0.85 --undefined-- 51.448
0.86 --undefined-- 48.022
0.87 --undefined-- 50.267
0.88 --undefined-- 54.179
0.89 --undefined-- 56.152
0.90 --undefined-- 57.664
0.91 --undefined-- 60.314
0.92 --undefined-- 62.614
0.93 --undefined-- 64.441
0.94 102.235 65.918
0.95 98.104 66.539
0.96 97.138 66.465
0.97 93.501 65.427
0.98 --undefined-- 62.717
0.99 --undefined-- 57.478
1.00 --undefined-- 48.919
1.01 --undefined-- 39.588
1.02 --undefined-- 39.725
1.03 --undefined-- 49.396
1.04 --undefined-- 55.837
1.05 --undefined-- 59.435
1.06 --undefined-- 62.357
1.07 --undefined-- 64.264
1.08 89.403 64.858
1.09 86.694 64.825
1.10 85.862 64.382
1.11 86.462 63.509
1.12 86.407 62.158
1.13 86.171 59.910
1.14 87.382 56.774
1.15 --undefined-- 52.562
1.16 --undefined-- 45.991
1.17 --undefined-- 40.934
1.18 --undefined-- 46.859
1.19 --undefined-- 54.886
1.20 --undefined-- 60.522
1.21 --undefined-- 64.036
1.22 --undefined-- 66.488
1.23 --undefined-- 67.185
1.24 --undefined-- 66.854
1.25 --undefined-- 66.104
1.26 --undefined-- 64.134
1.27 --undefined-- 62.632
1.28 77.271 62.731
1.29 77.567 63.033
1.30 77.986 62.940
1.31 78.497 62.258
1.32 78.050 62.087
1.33 81.360 62.161
1.34 80.833 61.247
1.35 80.434 59.415
1.36 79.833 57.294
1.37 79.050 55.422
1.38 78.749 53.548
1.39 80.344 53.000
1.40 --undefined-- 56.076
1.41 --undefined-- 59.383
1.42 --undefined-- 61.585
1.43 --undefined-- 63.066
1.44 --undefined-- 63.328
1.45 --undefined-- 62.312
1.46 --undefined-- 61.080
1.47 --undefined-- 59.201
1.48 --undefined-- 55.953
1.49 --undefined-- 52.301
1.50 --undefined-- 51.399
1.51 --undefined-- 52.040
1.52 --undefined-- 52.687
1.53 --undefined-- 54.275
1.54 --undefined-- 55.406
1.55 --undefined-- 55.198
1.56 --undefined-- 55.005
1.57 --undefined-- 55.765
1.58 --undefined-- 55.899
1.59 --undefined-- 55.463
1.60 --undefined-- 59.381
1.61 --undefined-- 63.842
1.62 --undefined-- 66.275
1.63 --undefined-- 67.575
1.64 --undefined-- 68.562
1.65 --undefined-- 69.117
1.66 --undefined-- 68.653
1.67 --undefined-- 67.141
1.68 --undefined-- 65.546
1.69 --undefined-- 63.965
1.70 --undefined-- 62.146
1.71 --undefined-- 61.938
1.72 --undefined-- 61.458
1.73 75.324 60.158
1.74 75.821 60.214
1.75 76.010 60.221
1.76 76.955 59.363
1.77 77.444 57.966
1.78 76.905 56.203
1.79 76.679 54.847
1.80 --undefined-- 53.480
1.81 --undefined-- 51.495
1.82 --undefined-- 50.681
1.83 --undefined-- 51.178
1.84 --undefined-- 50.899
1.85 --undefined-- 49.831
1.86 --undefined-- 48.704
1.87 --undefined-- 47.265
1.88 --undefined-- 45.325
1.89 --undefined-- 42.742
1.90 --undefined-- 39.546
1.91 --undefined-- 37.366
1.92 --undefined-- 35.962
1.93 --undefined-- 34.767
1.94 --undefined-- 35.372
1.95 --undefined-- 37.825
1.96 --undefined-- 41.591
1.97 --undefined-- 45.897
1.98 --undefined-- 49.271
1.99 --undefined-- 51.393
2.00 --undefined-- 53.454
2.01 --undefined-- 57.070
2.02 --undefined-- 62.237
2.03 --undefined-- 65.758
2.04 97.158 67.536
2.05 90.120 68.325
2.06 89.959 68.172
2.07 86.877 67.453
2.08 84.494 66.472
2.09 83.047 64.993
2.10 81.423 62.807
2.11 --undefined-- 60.549
2.12 --undefined-- 58.729
2.13 --undefined-- 55.525
2.14 --undefined-- 51.966
2.15 --undefined-- 56.109
2.16 --undefined-- 60.357
2.17 --undefined-- 62.314
2.18 --undefined-- 62.406
2.19 --undefined-- 61.976
2.20 --undefined-- 61.468
2.21 --undefined-- 59.825
2.22 --undefined-- 57.367
2.23 --undefined-- 54.976
2.24 --undefined-- 53.657
2.25 --undefined-- 57.184
2.26 98.615 61.114
2.27 96.912 63.096
2.28 93.808 63.622
2.29 91.456 63.026
2.30 87.433 61.547
2.31 85.728 59.478
2.32 84.784 56.919
2.33 84.836 54.054
2.34 84.877 52.199
2.35 84.754 51.503
2.36 84.009 50.784
2.37 84.842 50.063
2.38 83.395 49.179
2.39 --undefined-- 49.570
2.40 --undefined-- 54.701
2.41 83.801 59.306
2.42 83.994 61.928
2.43 83.894 63.122
2.44 84.125 63.252
2.45 83.805 62.459
2.46 84.046 60.989
2.47 87.110 59.335
2.48 87.701 57.411
2.49 86.838 54.827
2.50 --undefined-- 51.635
2.51 --undefined-- 49.281
2.52 --undefined-- 53.899
2.53 --undefined-- 56.937
2.54 --undefined-- 56.464
2.55 --undefined-- 55.072
2.56 --undefined-- 54.802
2.57 --undefined-- 54.771
2.58 --undefined-- 54.887
2.59 --undefined-- 53.724
2.60 --undefined-- 51.322
2.61 --undefined-- 50.370
2.62 --undefined-- 49.473
2.63 --undefined-- 47.374
2.64 --undefined-- 44.698
2.65 --undefined-- 42.056
2.66 --undefined-- 39.599
2.67 --undefined-- 38.036
2.68 --undefined-- 37.043
2.69 --undefined-- 36.072
2.70 --undefined-- 35.191
2.71 --undefined-- 36.426
2.72 --undefined-- 45.108
2.73 --undefined-- 52.361
2.74 --undefined-- 57.044
2.75 --undefined-- 60.931
2.76 --undefined-- 63.240
2.77 101.170 63.776
2.78 102.648 63.246
2.79 101.653 61.784
2.80 99.705 59.328
2.81 94.686 56.254
2.82 --undefined-- 52.492
2.83 --undefined-- 47.145
2.84 --undefined-- 40.012
2.85 --undefined-- 34.743
2.86 --undefined-- 34.043
2.87 --undefined-- 34.299
2.88 --undefined-- 33.994
2.89 --undefined-- 33.600
2.90 --undefined-- 38.871
2.91 --undefined-- 48.913
2.92 --undefined-- 55.831
2.93 --undefined-- 60.155
2.94 --undefined-- 61.795
2.95 --undefined-- 60.724
2.96 --undefined-- 62.380
2.97 --undefined-- 66.837
2.98 --undefined-- 68.726
2.99 --undefined-- 68.361
3.00 --undefined-- 67.304
3.01 --undefined-- 66.079
3.02 --undefined-- 64.557
3.03 --undefined-- 63.282
3.04 --undefined-- 63.316
3.05 --undefined-- 63.906
3.06 81.976 64.240
3.07 84.723 64.386
3.08 86.214 64.414
3.09 86.723 64.297
3.10 87.081 63.293
3.11 --undefined-- 61.334
3.12 --undefined-- 59.371
3.13 --undefined-- 57.931
3.14 90.104 57.104
3.15 88.275 56.260
3.16 86.232 55.702
3.17 --undefined-- 58.641
3.18 86.185 62.239
3.19 85.936 64.137
3.20 83.454 64.501
3.21 80.795 63.868
3.22 80.764 62.837
3.23 80.589 61.987
3.24 82.798 61.443
3.25 83.160 61.586
3.26 84.985 62.533
3.27 85.374 63.008
3.28 85.043 62.376
3.29 85.086 60.607
3.30 85.259 57.483
3.31 85.576 53.597
3.32 89.948 52.060
3.33 89.925 52.820
3.34 90.781 55.605
3.35 96.909 60.165
3.36 97.318 63.888
3.37 96.036 65.795
3.38 94.815 65.812
3.39 93.581 64.829
3.40 92.821 64.376
3.41 92.194 63.960
3.42 90.523 62.237
3.43 91.210 58.895
3.44 89.850 55.834
3.45 88.582 55.439
3.46 87.379 55.673
3.47 86.484 54.696
3.48 83.079 51.961
3.49 --undefined-- 47.996
3.50 --undefined-- 42.766
3.51 --undefined-- 38.118
3.52 --undefined-- 43.980
3.53 --undefined-- 50.219
3.54 --undefined-- 53.422
3.55 --undefined-- 54.168
3.56 --undefined-- 52.880
3.57 --undefined-- 52.862
3.58 --undefined-- 56.323
3.59 --undefined-- 59.159
3.60 84.335 60.604
3.61 86.714 61.225
3.62 83.418 61.635
3.63 83.686 61.916
3.64 80.253 61.746
3.65 79.617 61.133
3.66 78.841 60.999
3.67 77.601 60.713
3.68 --undefined-- 59.792
3.69 82.242 59.399
3.70 78.551 59.381
3.71 77.534 59.732
3.72 77.848 59.774
3.73 77.804 58.523
3.74 76.889 56.624
3.75 76.861 54.864
3.76 --undefined-- 52.467
3.77 --undefined-- 48.743
3.78 --undefined-- 43.497
3.79 --undefined-- 37.737
3.80 --undefined-- 34.509
3.81 --undefined-- 33.760
3.82 --undefined-- 33.714
3.83 --undefined-- 34.721
3.84 --undefined-- 35.658
3.85 --undefined-- 35.691
3.86 --undefined-- 36.296
3.87 --undefined-- 37.636
3.88 --undefined-- 39.534
3.89 --undefined-- 41.340
3.90 --undefined-- 41.861
3.91 --undefined-- 41.460
3.92 --undefined-- 41.132
3.93 --undefined-- 41.233
3.94 --undefined-- 41.406
3.95 --undefined-- 41.376
3.96 --undefined-- 41.474
3.97 --undefined-- 41.775
3.98 --undefined-- 41.899
3.99 --undefined-- 41.190
4.00 --undefined-- 39.508
4.01 --undefined-- 38.840
4.02 --undefined-- 43.182
4.03 --undefined-- 46.759
4.04 --undefined-- 47.939
4.05 --undefined-- 48.710
4.06 --undefined-- 47.314
4.07 --undefined-- 41.888
4.08 --undefined-- 34.003
4.09 --undefined-- 33.066
4.10 --undefined-- 36.323
4.11 --undefined-- 38.480
4.12 --undefined-- 38.441
4.13 --undefined-- 38.242
4.14 --undefined-- 39.872
4.15 --undefined-- 41.048
4.16 --undefined-- 41.483
4.17 --undefined-- 43.121
4.18 --undefined-- 46.015
4.19 --undefined-- 49.438
4.20 --undefined-- 55.010
4.21 --undefined-- 59.774
4.22 --undefined-- 61.937
4.23 89.591 62.205
4.24 90.273 61.751
4.25 85.925 61.564
4.26 86.318 61.598
4.27 86.676 61.185
4.28 86.207 60.957
4.29 86.217 60.770
4.30 86.990 60.218
4.31 87.149 59.643
4.32 85.791 59.230
4.33 86.050 58.510
4.34 86.585 57.068
4.35 86.564 55.122
4.36 86.177 53.099
4.37 --undefined-- 51.244
4.38 --undefined-- 49.967
4.39 --undefined-- 48.655
4.40 --undefined-- 47.502
4.41 --undefined-- 47.492
4.42 --undefined-- 49.520
4.43 89.498 52.778
4.44 91.386 55.971
4.45 93.054 58.864
4.46 97.611 61.365
4.47 101.985 62.836
4.48 105.119 62.554
4.49 105.260 60.322
4.50 105.221 56.720
4.51 108.070 53.501
4.52 109.624 52.141
4.53 114.491 51.571
4.54 112.337 50.936
4.55 112.533 50.158
4.56 --undefined-- 48.316
4.57 --undefined-- 44.439
4.58 --undefined-- 40.238
4.59 --undefined-- 41.968
4.60 --undefined-- 47.815
4.61 --undefined-- 55.479
4.62 --undefined-- 59.138
4.63 --undefined-- 58.822
4.64 --undefined-- 56.449
4.65 --undefined-- 58.066
4.66 --undefined-- 63.105
4.67 --undefined-- 66.684
4.68 --undefined-- 68.301
4.69 --undefined-- 68.381
4.70 --undefined-- 67.267
4.71 --undefined-- 64.578
4.72 --undefined-- 60.208
4.73 --undefined-- 58.489
4.74 --undefined-- 59.377
4.75 --undefined-- 60.823
4.76 --undefined-- 63.583
4.77 --undefined-- 66.663
4.78 85.366 69.702
4.79 83.443 71.976
4.80 83.332 72.548
4.81 80.600 70.924
4.82 79.992 68.664
4.83 77.977 67.858
4.84 77.902 66.530
4.85 --undefined-- 63.055
4.86 --undefined-- 56.857
4.87 --undefined-- 48.335
4.88 --undefined-- 43.150
4.89 --undefined-- 40.505
4.90 --undefined-- 38.974
4.91 --undefined-- 38.691
4.92 --undefined-- 41.173
4.93 --undefined-- 45.772
4.94 --undefined-- 48.744
4.95 --undefined-- 49.107
4.96 --undefined-- 47.196
4.97 --undefined-- 44.483
4.98 --undefined-- 42.415
4.99 --undefined-- 40.087
5.00 --undefined-- 37.005
5.01 --undefined-- 34.357
5.02 --undefined-- 34.334
5.03 --undefined-- 37.170
5.04 --undefined-- 38.094
5.05 --undefined-- 36.391
5.06 --undefined-- 34.364
5.07 --undefined-- 33.668
5.08 --undefined-- 37.045
5.09 --undefined-- 47.519
5.10 --undefined-- 55.587
5.11 --undefined-- 61.048
5.12 --undefined-- 64.462
5.13 --undefined-- 65.993
5.14 88.560 66.051
5.15 87.354 65.127
5.16 87.295 64.142
5.17 87.005 63.544
5.18 87.575 62.876
5.19 91.400 61.970
5.20 92.483 61.278
5.21 94.059 61.299
5.22 97.783 61.733
5.23 97.800 62.248
5.24 101.379 62.875
5.25 102.317 63.373
5.26 102.988 63.321
5.27 103.995 63.329
5.28 104.175 64.106
5.29 103.809 64.911
5.30 104.282 65.132
5.31 104.814 64.570
5.32 103.903 62.823
5.33 101.028 59.400
5.34 97.540 54.031
5.35 --undefined-- 46.482
5.36 --undefined-- 38.611
5.37 --undefined-- 34.922
5.38 --undefined-- 33.974
5.39 --undefined-- 40.713
5.40 --undefined-- 51.780
5.41 --undefined-- 57.916
5.42 121.255 59.887
5.43 120.906 58.732
5.44 --undefined-- 55.650
5.45 --undefined-- 55.243
5.46 --undefined-- 58.989
5.47 --undefined-- 61.181
5.48 86.773 61.323
5.49 85.837 60.825
5.50 84.545 61.219
5.51 83.568 61.610
5.52 82.940 61.420
5.53 83.188 61.257
5.54 83.316 61.308
5.55 83.757 61.437
5.56 83.313 61.581
5.57 82.569 61.639
5.58 80.826 61.663
5.59 80.237 61.469
5.60 78.783 61.153
5.61 78.757 61.064
5.62 78.804 60.967
5.63 78.595 60.514
5.64 78.667 59.923
5.65 78.506 59.810
5.66 79.803 60.392
5.67 79.918 61.040
5.68 80.051 61.211
5.69 79.018 61.013
5.70 80.711 --undefined--
5.71 81.182 --undefined--
5.72 --undefined-- --undefined--
5.73 --undefined-- --undefined--
