Time Pitch Intensity
0.01 --undefined-- --undefined--
0.02 78.023 --undefined--
0.03 78.138 --undefined--
0.04 79.260 --undefined--
0.05 78.157 65.583
0.06 78.971 66.154
0.07 78.635 66.638
0.08 76.080 66.310
0.09 76.825 64.973
0.10 --undefined-- 62.077
0.11 --undefined-- 56.539
0.12 --undefined-- 47.061
0.13 --undefined-- 36.293
0.14 --undefined-- 33.927
0.15 --undefined-- 33.902
0.16 --undefined-- 36.882
0.17 --undefined-- 47.357
0.18 --undefined-- 55.804
0.19 --undefined-- 59.480
0.20 --undefined-- 59.302
0.21 --undefined-- 57.088
0.22 --undefined-- 56.146
0.23 --undefined-- 57.970
0.24 --undefined-- 62.500
0.25 113.937 65.176
0.26 113.502 65.149
0.27 112.179 63.222
0.28 109.756 60.646
0.29 107.418 59.201
0.30 105.634 58.686
0.31 103.883 58.429
0.32 103.408 58.467
0.33 104.240 58.938
0.34 104.669 59.381
0.35 105.172 58.891
0.36 105.502 58.323
0.37 105.642 58.368
0.38 105.191 58.319
0.39 104.326 57.826
0.40 103.408 56.832
0.41 102.709 56.226
0.42 --undefined-- 61.473
0.43 --undefined-- 67.862
0.44 --undefined-- 70.535
0.45 --undefined-- 70.068
0.46 --undefined-- 68.677
0.47 --undefined-- 68.373
0.48 --undefined-- 68.635
0.49 --undefined-- 68.197
0.50 --undefined-- 66.188
0.51 --undefined-- 63.299
0.52 --undefined-- 64.771
0.53 --undefined-- 66.950
0.54 --undefined-- 67.807
0.55 --undefined-- 68.247
0.56 --undefined-- 68.284
0.57 --undefined-- 67.580
0.58 --undefined-- 65.923
0.59 --undefined-- 63.353
0.60 --undefined-- 61.495
0.61 --undefined-- 61.298
0.62 --undefined-- 60.521
0.63 --undefined-- 58.206
0.64 75.170 55.467
0.65 --undefined-- 53.396
0.66 --undefined-- 51.811
0.67 --undefined-- 50.723
0.68 --undefined-- 49.003
0.69 --undefined-- 50.995
0.70 --undefined-- 56.673
0.71 --undefined-- 60.077
0.72 --undefined-- 60.631
0.73 --undefined-- 59.116
0.74 --undefined-- 57.684
0.75 --undefined-- 57.975
0.76 --undefined-- 59.097
0.77 --undefined-- 60.208
0.78 --undefined-- 60.479
0.79 --undefined-- 60.158
0.80 --undefined-- 60.048
0.81 --undefined-- 60.134
0.82 --undefined-- 59.743
0.83 --undefined-- 59.090
0.84 --undefined-- 60.575
0.85 --undefined-- 64.469
0.86 --undefined-- 67.118
0.87 82.418 67.994
0.88 82.143 67.530
0.89 85.404 66.926
0.90 89.218 66.896
0.91 92.174 66.893
0.92 96.461 66.869
0.93 101.762 67.021
0.94 104.168 66.809
0.95 --undefined-- 65.066
0.96 --undefined-- 60.713
0.97 --undefined-- 54.569
0.98 --undefined-- 52.951
0.99 --undefined-- 54.866
1.00 --undefined-- 56.946
1.01 --undefined-- 58.016
1.02 --undefined-- 57.928
1.03 --undefined-- 56.658
1.04 --undefined-- 55.634
1.05 --undefined-- 55.405
1.06 --undefined-- 57.183
1.07 --undefined-- 61.818
1.08 83.091 65.819
1.09 82.386 67.895
1.10 82.026 68.223
1.11 79.505 67.774
1.12 80.051 67.081
1.13 --undefined-- 65.371
1.14 --undefined-- 63.175
1.15 --undefined-- 62.563
1.16 --undefined-- 60.301
1.17 --undefined-- 53.974
1.18 --undefined-- 44.355
1.19 --undefined-- 40.519
1.20 --undefined-- 43.579
1.21 --undefined-- 47.151
1.22 --undefined-- 49.009
1.23 --undefined-- 50.415
1.24 --undefined-- 53.897
1.25 --undefined-- 56.554
1.26 96.346 58.122
1.27 95.861 61.670
1.28 --undefined-- 65.826
1.29 95.106 67.938
1.30 95.597 68.272
1.31 95.055 67.860
1.32 94.089 67.207
1.33 93.917 66.562
1.34 93.375 66.171
1.35 92.289 65.680
1.36 89.498 65.235
1.37 87.832 65.205
1.38 86.678 64.564
1.39 84.441 62.381
1.40 --undefined-- 58.544
1.41 --undefined-- 52.759
1.42 --undefined-- 44.435
1.43 --undefined-- 37.828
1.44 --undefined-- 35.782
1.45 --undefined-- 44.054
1.46 --undefined-- 53.835
1.47 --undefined-- 58.852
1.48 --undefined-- 61.586
1.49 --undefined-- 64.874
1.50 98.294 67.448
1.51 97.506 68.399
1.52 94.726 68.323
1.53 92.340 67.865
1.54 90.399 67.420
1.55 89.205 67.133
1.56 89.509 66.908
1.57 90.838 66.565
1.58 92.224 66.068
1.59 91.977 65.429
1.60 91.863 64.232
1.61 92.236 61.960
1.62 90.941 59.324
1.63 --undefined-- 57.524
1.64 --undefined-- 56.002
1.65 --undefined-- 54.294
1.66 --undefined-- 55.108
1.67 74.841 57.379
1.68 75.546 59.185
1.69 76.443 60.815
1.70 82.370 62.221
1.71 82.202 63.555
1.72 80.789 64.449
1.73 80.567 64.544
1.74 81.575 64.218
1.75 82.608 63.922
1.76 85.108 64.421
1.77 88.505 65.221
1.78 90.459 65.241
1.79 92.620 64.328
1.80 94.711 62.867
1.81 --undefined-- 62.184
1.82 --undefined-- 63.133
1.83 --undefined-- 63.935
1.84 --undefined-- 64.670
1.85 --undefined-- 65.297
1.86 --undefined-- 64.945
1.87 --undefined-- 63.270
1.88 --undefined-- 61.198
1.89 --undefined-- 60.910
1.90 --undefined-- 61.023
1.91 --undefined-- 60.656
1.92 --undefined-- 60.516
1.93 --undefined-- 60.129
1.94 --undefined-- 60.475
1.95 --undefined-- 63.519
1.96 85.296 65.899
1.97 84.030 66.439
1.98 83.998 65.608
1.99 83.826 64.072
2.00 83.882 61.991
2.01 85.758 58.932
2.02 81.268 54.811
2.03 87.577 51.314
2.04 88.355 50.805
2.05 89.067 51.002
2.06 88.677 51.345
2.07 88.617 51.802
2.08 88.816 51.596
2.09 86.880 50.881
2.10 87.217 50.150
2.11 84.128 48.884
2.12 --undefined-- 50.625
2.13 --undefined-- 56.270
2.14 --undefined-- 59.583
2.15 79.595 60.593
2.16 80.097 60.590
2.17 77.109 60.158
2.18 77.108 59.760
2.19 75.650 58.835
2.20 --undefined-- 56.287
2.21 --undefined-- 52.187
2.22 --undefined-- 48.247
2.23 --undefined-- 47.279
2.24 --undefined-- 47.602
2.25 79.416 47.895
2.26 79.172 48.086
2.27 78.414 47.728
2.28 --undefined-- 45.952
2.29 --undefined-- 42.220
2.30 --undefined-- 40.292
2.31 --undefined-- 49.206
2.32 --undefined-- 55.135
2.33 --undefined-- 57.388
2.34 --undefined-- 59.629
2.35 89.858 62.835
2.36 77.022 64.446
2.37 77.177 64.730
2.38 79.720 64.876
2.39 77.611 64.625
2.40 78.345 63.645
2.41 78.415 62.297
2.42 76.885 61.245
2.43 79.277 60.351
2.44 --undefined-- 58.223
2.45 --undefined-- 53.848
2.46 --undefined-- 49.989
2.47 78.353 49.435
2.48 79.748 49.587
2.49 79.926 51.848
2.50 --undefined-- 57.346
2.51 --undefined-- 61.314
2.52 85.033 62.886
2.53 86.612 63.119
2.54 86.658 63.212
2.55 87.056 63.464
2.56 87.216 63.571
2.57 87.557 62.935
2.58 87.039 60.707
2.59 --undefined-- 56.099
2.60 --undefined-- 48.316
2.61 --undefined-- 38.455
2.62 --undefined-- 34.586
2.63 --undefined-- 34.075
2.64 --undefined-- 34.845
2.65 --undefined-- 35.935
2.66 --undefined-- 47.136
2.67 --undefined-- 57.069
2.68 --undefined-- 63.268
2.69 --undefined-- 67.428
2.70 --undefined-- 69.005
2.71 --undefined-- 67.346
2.72 --undefined-- 62.526
2.73 --undefined-- 54.659
2.74 --undefined-- 43.880
2.75 --undefined-- 37.035
2.76 --undefined-- 35.192
2.77 --undefined-- 34.258
2.78 --undefined-- 34.574
2.79 --undefined-- 35.527
2.80 --undefined-- 42.365
2.81 --undefined-- 53.570
2.82 --undefined-- 60.336
2.83 --undefined-- 64.515
2.84 --undefined-- 67.955
2.85 --undefined-- 70.161
2.86 --undefined-- 70.534
2.87 --undefined-- 69.089
2.88 78.010 65.784
2.89 77.413 60.795
2.90 75.334 55.033
2.91 80.182 51.001
2.92 82.385 50.127
2.93 83.394 49.995
2.94 84.706 50.085
2.95 85.819 50.586
2.96 87.207 52.529
2.97 87.921 55.689
2.98 87.783 57.938
2.99 85.376 59.745
3.00 85.962 61.606
3.01 83.476 62.840
3.02 81.754 62.898
3.03 --undefined-- 61.199
3.04 --undefined-- 57.113
3.05 --undefined-- 50.987
3.06 --undefined-- 47.239
3.07 --undefined-- 47.307
3.08 --undefined-- 50.724
3.09 --undefined-- 57.596
3.10 --undefined-- 61.625
3.11 --undefined-- 62.506
3.12 --undefined-- 61.837
3.13 --undefined-- 60.903
3.14 --undefined-- 58.909
3.15 --undefined-- 55.014
3.16 --undefined-- 49.483
3.17 --undefined-- 44.866
3.18 --undefined-- 43.280
3.19 --undefined-- 42.057
3.20 --undefined-- 39.444
3.21 --undefined-- 36.568
3.22 --undefined-- 36.485
3.23 --undefined-- 45.957
3.24 --undefined-- 55.041
3.25 --undefined-- 59.722
3.26 --undefined-- 60.818
3.27 --undefined-- 59.513
3.28 --undefined-- 59.106
3.29 --undefined-- 61.419
3.30 --undefined-- 64.565
3.31 --undefined-- 67.261
3.32 --undefined-- 68.618
3.33 --undefined-- 68.039
3.34 --undefined-- 65.671
3.35 --undefined-- 62.663
3.36 --undefined-- 60.842
3.37 --undefined-- 57.930
3.38 --undefined-- 52.048
3.39 --undefined-- 46.809
3.40 --undefined-- 46.364
3.41 --undefined-- 50.493
3.42 --undefined-- 53.228
3.43 --undefined-- 53.065
3.44 --undefined-- 51.735
3.45 --undefined-- 51.513
3.46 --undefined-- 53.006
3.47 --undefined-- 56.100
3.48 --undefined-- 60.668
3.49 --undefined-- 64.219
3.50 --undefined-- 66.583
3.51 --undefined-- 67.106
3.52 --undefined-- 65.448
3.53 --undefined-- 62.742
3.54 --undefined-- 59.762
3.55 --undefined-- 55.893
3.56 --undefined-- 52.421
3.57 --undefined-- 48.800
3.58 --undefined-- 43.323
3.59 --undefined-- 37.782
3.60 --undefined-- 34.987
3.61 --undefined-- 33.805
3.62 --undefined-- 34.024
3.63 --undefined-- 35.291
3.64 --undefined-- 36.777
3.65 --undefined-- 37.888
3.66 --undefined-- 38.802
3.67 --undefined-- 40.131
3.68 --undefined-- 40.949
3.69 --undefined-- 40.952
3.70 --undefined-- 40.750
3.71 --undefined-- 40.700
3.72 --undefined-- 41.112
3.73 --undefined-- 42.301
3.74 --undefined-- 43.762
3.75 --undefined-- 44.098
3.76 --undefined-- 42.977
3.77 --undefined-- 42.586
3.78 --undefined-- 43.072
3.79 --undefined-- 43.071
3.80 --undefined-- 43.302
3.81 --undefined-- 43.297
3.82 --undefined-- 42.624
3.83 --undefined-- 42.136
3.84 --undefined-- 41.501
3.85 --undefined-- 40.483
3.86 --undefined-- 39.979
3.87 --undefined-- 39.826
3.88 --undefined-- 39.104
3.89 --undefined-- 37.993
3.90 --undefined-- 37.289
3.91 --undefined-- 36.937
3.92 --undefined-- 36.493
3.93 --undefined-- 35.693
3.94 --undefined-- 35.069
3.95 --undefined-- 34.091
3.96 --undefined-- 32.838
3.97 --undefined-- 32.752
3.98 --undefined-- 34.083
3.99 --undefined-- 35.594
4.00 --undefined-- 35.758
4.01 --undefined-- 36.215
4.02 --undefined-- 44.578
4.03 --undefined-- 50.589
4.04 --undefined-- 51.807
4.05 --undefined-- 48.591
4.06 --undefined-- 43.409
4.07 --undefined-- 49.125
4.08 --undefined-- 56.619
4.09 94.952 61.550
4.10 93.565 64.280
4.11 --undefined-- 65.655
4.12 86.449 66.424
4.13 87.005 66.720
4.14 83.737 66.604
4.15 83.779 66.341
4.16 81.941 66.288
4.17 81.169 66.275
4.18 80.918 65.890
4.19 81.328 65.715
4.20 80.192 65.622
4.21 80.200 65.364
4.22 79.701 65.334
4.23 79.007 65.483
4.24 78.191 65.757
4.25 77.852 66.043
4.26 77.024 65.924
4.27 76.360 65.545
4.28 76.111 65.619
4.29 76.029 65.595
4.30 76.178 65.350
4.31 75.930 65.502
4.32 75.713 65.808
4.33 76.555 65.599
4.34 77.090 64.618
4.35 76.932 63.290
4.36 76.623 62.335
4.37 76.684 62.083
4.38 --undefined-- 63.180
4.39 --undefined-- 63.782
4.40 --undefined-- 61.789
4.41 --undefined-- 59.111
4.42 --undefined-- 58.479
4.43 --undefined-- 57.551
4.44 --undefined-- 57.014
4.45 --undefined-- 58.368
4.46 --undefined-- 59.842
4.47 --undefined-- 60.295
4.48 --undefined-- 61.700
4.49 85.626 64.787
4.50 85.641 67.340
4.51 80.968 68.558
4.52 79.471 68.587
4.53 76.988 67.569
4.54 --undefined-- 65.224
4.55 --undefined-- 60.928
4.56 --undefined-- 53.469
4.57 --undefined-- 42.718
4.58 --undefined-- 36.123
4.59 --undefined-- 34.654
4.60 --undefined-- 40.041
4.61 --undefined-- 52.253
4.62 --undefined-- 59.663
4.63 --undefined-- 64.003
4.64 --undefined-- 67.308
4.65 --undefined-- 69.180
4.66 96.171 68.994
4.67 94.254 66.748
4.68 93.561 62.830
4.69 96.984 59.239
4.70 99.886 57.864
4.71 100.737 57.588
4.72 100.876 57.181
4.73 99.772 56.077
4.74 96.686 54.111
4.75 --undefined-- 52.136
4.76 --undefined-- 50.359
4.77 --undefined-- 49.882
4.78 --undefined-- 51.554
4.79 --undefined-- 57.279
4.80 --undefined-- 65.110
4.81 --undefined-- 70.632
4.82 --undefined-- 72.414
4.83 --undefined-- 70.772
4.84 --undefined-- 66.843
4.85 --undefined-- 62.070
4.86 --undefined-- 61.157
4.87 84.899 63.796
4.88 84.986 66.073
4.89 --undefined-- 67.423
4.90 79.723 67.245
4.91 77.232 66.038
4.92 76.331 64.416
4.93 76.356 62.225
4.94 77.749 59.664
4.95 79.808 56.908
4.96 79.699 55.701
4.97 79.771 57.115
4.98 --undefined-- 59.460
4.99 --undefined-- 60.991
5.00 --undefined-- 62.121
5.01 --undefined-- 63.528
5.02 --undefined-- 64.174
5.03 --undefined-- 64.248
5.04 --undefined-- 64.226
5.05 --undefined-- 63.803
5.06 --undefined-- 62.945
5.07 --undefined-- 61.674
5.08 --undefined-- 59.386
5.09 --undefined-- 55.124
5.10 --undefined-- 47.701
5.11 --undefined-- 38.156
5.12 --undefined-- 36.657
5.13 --undefined-- 45.262
5.14 --undefined-- 52.213
5.15 --undefined-- 57.265
5.16 --undefined-- 62.568
5.17 --undefined-- 66.743
5.18 --undefined-- 69.209
5.19 --undefined-- 70.017
5.20 --undefined-- 70.605
5.21 --undefined-- 71.521
5.22 --undefined-- 70.265
5.23 --undefined-- 65.998
5.24 --undefined-- 61.748
5.25 100.592 59.938
5.26 98.786 57.891
5.27 96.318 56.258
5.28 93.270 55.376
5.29 90.497 54.236
5.30 88.047 52.894
5.31 87.098 51.522
5.32 86.730 50.070
5.33 --undefined-- 49.756
5.34 --undefined-- 53.773
5.35 --undefined-- 58.293
5.36 --undefined-- 60.412
5.37 --undefined-- 60.794
5.38 --undefined-- 61.802
5.39 --undefined-- 63.333
5.40 --undefined-- 63.876
5.41 --undefined-- 63.939
5.42 --undefined-- 63.511
5.43 --undefined-- 61.631
5.44 --undefined-- 59.626
5.45 --undefined-- 62.378
5.46 93.876 65.488
5.47 93.578 66.291
5.48 88.925 65.170
5.49 83.022 63.392
5.50 78.966 62.175
5.51 76.005 61.685
5.52 --undefined-- 61.478
5.53 --undefined-- 60.564
5.54 --undefined-- 58.373
5.55 --undefined-- 54.725
5.56 --undefined-- 52.280
5.57 --undefined-- 57.052
5.58 --undefined-- 60.639
5.59 --undefined-- 61.661
5.60 --undefined-- 61.713
5.61 --undefined-- 61.611
5.62 --undefined-- 61.006
5.63 --undefined-- 59.810
5.64 --undefined-- 56.957
5.65 --undefined-- 52.654
5.66 --undefined-- 49.869
5.67 --undefined-- 50.167
5.68 --undefined-- 50.917
5.69 --undefined-- 50.855
5.70 --undefined-- 50.195
5.71 --undefined-- 50.651
5.72 --undefined-- --undefined--
5.73 76.795 --undefined--
5.74 --undefined-- --undefined--
5.75 --undefined-- --undefined--
