Time Pitch Intensity
0.01 --undefined-- --undefined--
0.02 265.178 --undefined--
0.03 237.293 --undefined--
0.04 230.018 --undefined--
0.05 223.196 71.961
0.06 216.373 71.153
0.07 210.679 70.664
0.08 207.986 70.766
0.09 208.817 71.329
0.10 208.614 72.001
0.11 208.844 72.527
0.12 211.463 72.822
0.13 216.653 72.884
0.14 222.864 72.772
0.15 228.822 72.517
0.16 232.155 72.029
0.17 236.065 71.425
0.18 236.562 71.042
0.19 233.844 70.385
0.20 226.204 68.455
0.21 212.923 64.894
0.22 203.949 60.201
0.23 211.899 56.012
0.24 --undefined-- 61.319
0.25 --undefined-- 68.257
0.26 231.337 71.730
0.27 220.018 72.642
0.28 213.102 72.440
0.29 207.999 72.192
0.30 204.723 71.962
0.31 202.390 71.679
0.32 203.682 71.668
0.33 205.870 71.952
0.34 208.474 72.202
0.35 211.562 72.284
0.36 213.044 72.092
0.37 213.998 71.515
0.38 212.250 70.332
0.39 207.452 68.175
0.40 203.479 64.582
0.41 198.325 59.159
0.42 --undefined-- 55.494
0.43 --undefined-- 59.818
0.44 220.606 65.493
0.45 206.217 69.271
0.46 198.205 71.000
0.47 192.852 71.629
0.48 187.710 71.841
0.49 181.909 71.651
0.50 177.503 71.192
0.51 174.331 70.864
0.52 171.596 70.851
0.53 170.191 70.869
0.54 169.844 70.681
0.55 170.294 70.451
0.56 170.431 70.237
0.57 169.579 69.843
0.58 167.047 68.786
0.59 163.261 66.205
0.60 161.432 61.392
0.61 158.816 55.424
0.62 157.859 52.399
0.63 158.886 51.120
0.64 --undefined-- 49.472
0.65 --undefined-- 47.568
0.66 --undefined-- 46.974
0.67 --undefined-- 50.855
0.68 --undefined-- 60.526
0.69 217.931 67.562
0.70 203.476 71.198
0.71 191.969 72.660
0.72 183.033 73.317
0.73 176.954 73.540
0.74 173.872 73.083
0.75 172.993 72.164
0.76 173.834 71.402
0.77 174.600 71.111
0.78 175.192 71.217
0.79 176.434 71.581
0.80 177.921 71.847
0.81 178.379 71.801
0.82 178.283 71.564
0.83 179.528 71.369
0.84 179.493 71.167
0.85 176.642 70.773
0.86 172.702 70.032
0.87 167.290 69.030
0.88 170.584 69.624
0.89 176.076 72.125
0.90 171.303 73.567
0.91 167.502 73.272
0.92 164.441 71.750
0.93 162.156 69.334
0.94 158.009 65.638
0.95 139.304 60.307
0.96 165.142 54.236
0.97 167.522 49.511
0.98 --undefined-- 45.651
0.99 --undefined-- 41.933
1.00 --undefined-- 38.946
1.01 --undefined-- 37.376
1.02 --undefined-- 42.970
1.03 --undefined-- 50.334
1.04 --undefined-- 54.005
1.05 --undefined-- 56.215
1.06 --undefined-- 57.194
1.07 --undefined-- 55.449
1.08 --undefined-- 51.937
1.09 --undefined-- 50.497
1.10 --undefined-- 51.605
1.11 --undefined-- 55.340
1.12 --undefined-- 62.278
1.13 199.960 67.658
1.14 199.290 70.481
1.15 199.152 71.756
1.16 197.344 72.451
1.17 194.049 72.734
1.18 188.749 72.204
1.19 181.203 70.685
1.20 175.013 68.452
1.21 165.116 65.418
1.22 170.351 60.856
1.23 190.827 54.495
1.24 --undefined-- 51.111
1.25 --undefined-- 51.879
1.26 --undefined-- 50.164
1.27 --undefined-- 45.072
1.28 --undefined-- 38.949
1.29 --undefined-- 36.673
1.30 --undefined-- 36.311
1.31 --undefined-- 34.561
1.32 --undefined-- 32.499
1.33 --undefined-- 43.000
1.34 --undefined-- 56.687
1.35 --undefined-- 65.599
1.36 --undefined-- 70.578
1.37 182.341 72.590
1.38 172.964 72.736
1.39 163.415 72.069
1.40 158.712 71.022
1.41 155.340 69.918
1.42 156.779 69.587
1.43 159.499 69.918
1.44 163.525 70.545
1.45 167.762 71.360
1.46 170.295 71.697
1.47 171.995 71.509
1.48 172.736 71.275
1.49 171.678 71.030
1.50 169.838 70.607
1.51 167.395 69.987
1.52 164.533 69.265
1.53 162.799 68.419
1.54 162.123 67.237
1.55 160.742 65.876
1.56 161.652 64.615
1.57 165.035 62.739
1.58 153.720 58.954
1.59 --undefined-- 52.705
1.60 --undefined-- 47.512
1.61 --undefined-- 46.065
1.62 --undefined-- 43.878
1.63 --undefined-- 40.904
1.64 --undefined-- 40.492
1.65 --undefined-- 41.688
1.66 --undefined-- 42.511
1.67 --undefined-- 42.798
1.68 --undefined-- 42.877
1.69 --undefined-- 42.935
1.70 --undefined-- 43.489
1.71 --undefined-- 43.820
1.72 --undefined-- 43.570
1.73 --undefined-- 43.385
1.74 --undefined-- 43.656
1.75 --undefined-- 43.661
1.76 --undefined-- 43.263
1.77 --undefined-- 42.222
1.78 --undefined-- 40.767
1.79 --undefined-- 40.242
1.80 --undefined-- 39.750
1.81 --undefined-- 38.082
1.82 --undefined-- 36.837
1.83 --undefined-- 38.691
1.84 --undefined-- 40.927
1.85 --undefined-- 40.390
1.86 --undefined-- 37.035
1.87 --undefined-- 35.900
1.88 --undefined-- 36.479
1.89 --undefined-- 34.196
1.90 --undefined-- 30.824
1.91 --undefined-- 43.777
1.92 --undefined-- 57.939
1.93 --undefined-- 67.472
1.94 244.260 73.005
1.95 223.852 75.410
1.96 216.139 75.916
1.97 214.427 75.919
1.98 214.945 76.050
1.99 215.594 76.260
2.00 215.727 76.416
2.01 214.942 76.443
2.02 213.245 76.227
2.03 212.329 75.713
2.04 213.578 75.131
2.05 216.565 74.758
2.06 220.190 74.631
2.07 220.942 74.429
2.08 216.080 73.474
2.09 199.989 71.054
2.10 189.406 66.652
2.11 --undefined-- 59.657
2.12 --undefined-- 49.733
2.13 --undefined-- 46.470
2.14 --undefined-- 48.541
2.15 --undefined-- 49.298
2.16 --undefined-- 51.485
2.17 --undefined-- 59.552
2.18 264.517 67.212
2.19 256.551 71.840
2.20 253.645 74.141
2.21 252.724 75.026
2.22 251.686 75.182
2.23 249.594 75.057
2.24 247.597 74.929
2.25 246.168 74.813
2.26 245.302 74.771
2.27 244.663 74.867
2.28 244.205 74.938
2.29 243.982 74.949
2.30 243.353 74.919
2.31 243.196 74.708
2.32 243.261 74.234
2.33 242.904 73.606
2.34 241.803 73.111
2.35 242.463 72.941
2.36 243.047 72.943
2.37 243.385 72.909
2.38 244.029 72.770
2.39 244.888 72.593
2.40 245.667 72.436
2.41 245.480 72.281
2.42 245.267 72.094
2.43 244.062 71.838
2.44 240.983 71.444
2.45 236.210 71.131
2.46 233.088 71.531
2.47 235.869 72.711
2.48 239.049 73.929
2.49 238.053 74.849
2.50 237.253 75.481
2.51 236.872 75.726
2.52 236.105 75.540
2.53 235.268 75.178
2.54 234.159 74.926
2.55 233.501 74.741
2.56 233.614 74.463
2.57 233.987 74.080
2.58 236.004 73.706
2.59 238.457 73.459
2.60 239.742 73.372
2.61 241.120 73.428
2.62 243.154 73.577
2.63 245.507 73.706
2.64 246.145 73.573
2.65 241.868 72.728
2.66 229.349 70.769
2.67 212.937 67.430
2.68 196.172 62.531
2.69 218.083 56.545
2.70 --undefined-- 50.527
2.71 --undefined-- 46.310
2.72 --undefined-- 46.631
2.73 --undefined-- 50.899
2.74 --undefined-- 59.887
2.75 --undefined-- 68.225
2.76 157.011 73.344
2.77 156.122 75.710
2.78 152.770 76.110
2.79 150.671 75.769
2.80 149.915 75.628
2.81 150.189 75.139
2.82 151.275 74.246
2.83 150.975 73.760
2.84 150.568 73.544
2.85 150.214 73.225
2.86 299.013 73.021
2.87 296.165 72.673
2.88 293.179 71.415
2.89 289.384 68.754
2.90 279.399 64.666
2.91 277.766 59.316
2.92 295.275 53.051
2.93 297.411 47.535
2.94 --undefined-- 43.376
2.95 --undefined-- 39.149
2.96 --undefined-- 39.197
2.97 --undefined-- 46.982
2.98 --undefined-- 53.884
2.99 --undefined-- 59.538
3.00 --undefined-- 64.887
3.01 254.374 69.805
3.02 235.230 72.508
3.03 221.330 73.140
3.04 212.078 72.951
3.05 204.265 72.910
3.06 198.920 72.948
3.07 191.661 72.270
3.08 186.265 70.312
3.09 162.401 67.389
3.10 146.561 64.476
3.11 145.488 62.572
3.12 152.802 62.958
3.13 170.431 64.698
3.14 172.083 66.387
3.15 173.224 67.548
3.16 174.233 68.182
3.17 171.567 68.393
3.18 166.971 68.377
3.19 166.145 68.297
3.20 157.430 68.322
3.21 154.037 68.858
3.22 147.929 69.538
3.23 145.592 69.685
3.24 143.817 69.257
3.25 143.807 68.621
3.26 144.428 67.992
3.27 146.084 67.541
3.28 149.725 67.138
3.29 152.955 65.961
3.30 156.803 63.008
3.31 151.249 57.624
3.32 152.033 50.674
3.33 --undefined-- 46.421
3.34 --undefined-- 45.868
3.35 --undefined-- 50.392
3.36 --undefined-- 53.901
3.37 --undefined-- 58.941
3.38 --undefined-- 65.180
3.39 176.807 68.915
3.40 175.966 70.390
3.41 168.292 70.487
3.42 162.419 70.069
3.43 161.120 69.634
3.44 155.200 69.390
3.45 153.343 69.622
3.46 151.372 69.941
3.47 150.915 69.864
3.48 150.625 69.522
3.49 150.363 69.091
3.50 153.306 68.651
3.51 155.421 68.309
3.52 155.006 67.716
3.53 153.877 66.313
3.54 155.635 63.498
3.55 154.391 58.644
3.56 155.268 52.381
3.57 --undefined-- 48.523
3.58 --undefined-- 47.186
3.59 --undefined-- 46.270
3.60 --undefined-- 45.733
3.61 --undefined-- 45.600
3.62 --undefined-- 46.348
3.63 --undefined-- 49.811
3.64 --undefined-- 58.657
3.65 --undefined-- 66.213
3.66 184.901 70.498
3.67 175.455 72.202
3.68 168.948 71.990
3.69 148.445 70.681
3.70 143.051 69.392
3.71 140.715 68.173
3.72 137.797 67.200
3.73 139.572 66.935
3.74 141.586 67.088
3.75 143.189 67.628
3.76 150.806 68.486
3.77 154.828 69.141
3.78 159.008 69.386
3.79 163.606 69.751
3.80 166.597 70.268
3.81 169.089 70.606
3.82 171.716 70.888
3.83 173.025 71.178
3.84 172.647 71.048
3.85 171.164 70.180
3.86 170.653 69.240
3.87 172.577 68.854
3.88 171.788 68.362
3.89 169.735 67.325
3.90 166.639 65.893
3.91 164.562 64.611
3.92 163.818 64.556
3.93 164.089 65.703
3.94 165.710 67.136
3.95 166.166 68.270
3.96 165.073 68.904
3.97 163.248 69.196
3.98 162.844 69.259
3.99 162.117 69.188
4.00 163.176 69.238
4.01 165.576 69.509
4.02 168.807 69.922
4.03 173.442 70.342
4.04 180.597 70.928
4.05 186.732 71.759
4.06 191.076 72.118
4.07 195.957 71.352
4.08 197.484 69.583
4.09 200.604 67.676
4.10 204.080 66.393
4.11 204.708 65.616
4.12 210.631 65.562
4.13 209.818 66.369
4.14 202.971 67.465
4.15 194.245 68.710
4.16 183.049 70.289
4.17 172.506 71.601
4.18 162.340 71.943
4.19 150.452 71.309
4.20 143.723 70.151
4.21 141.599 68.443
4.22 142.807 66.029
4.23 142.183 63.480
4.24 141.880 62.036
4.25 169.815 61.973
4.26 161.384 62.072
4.27 156.425 62.227
4.28 156.739 62.833
4.29 154.494 63.821
4.30 150.692 64.411
4.31 143.972 64.256
4.32 126.137 63.282
4.33 123.534 61.472
4.34 --undefined-- 59.671
4.35 --undefined-- 58.801
4.36 --undefined-- 58.899
4.37 --undefined-- 59.170
4.38 --undefined-- 59.215
4.39 --undefined-- 59.082
4.40 --undefined-- 59.720
4.41 --undefined-- 62.610
4.42 150.696 65.543
4.43 147.802 66.983
4.44 144.453 66.873
4.45 141.742 66.014
4.46 140.240 65.095
4.47 139.811 64.236
4.48 140.077 63.782
4.49 138.924 63.548
4.50 136.888 63.008
4.51 135.389 61.884
4.52 136.135 60.150
4.53 --undefined-- 58.017
4.54 --undefined-- 54.929
4.55 --undefined-- 51.046
4.56 --undefined-- 49.154
4.57 --undefined-- 48.387
4.58 --undefined-- 47.121
4.59 --undefined-- 44.462
4.60 --undefined-- 41.917
4.61 --undefined-- 42.181
4.62 --undefined-- 42.653
4.63 --undefined-- 42.984
4.64 --undefined-- 43.678
4.65 --undefined-- 43.946
4.66 --undefined-- 44.318
4.67 --undefined-- 44.835
4.68 --undefined-- 45.290
4.69 --undefined-- 47.951
4.70 --undefined-- 55.982
4.71 --undefined-- 62.975
4.72 172.393 66.616
4.73 169.279 67.583
4.74 160.768 67.049
4.75 144.160 66.181
4.76 138.580 65.652
4.77 139.848 65.258
4.78 138.688 64.449
4.79 137.504 63.109
4.80 139.155 61.677
4.81 149.756 61.025
4.82 151.825 61.185
4.83 155.816 60.687
4.84 158.016 58.140
4.85 --undefined-- 52.615
4.86 --undefined-- 45.326
4.87 --undefined-- 42.184
4.88 --undefined-- 48.595
4.89 --undefined-- 57.914
4.90 --undefined-- 64.739
4.91 180.107 68.734
4.92 178.300 70.365
4.93 176.792 70.620
4.94 171.889 70.419
4.95 166.822 70.108
4.96 163.027 69.577
4.97 159.643 68.772
4.98 155.685 67.828
4.99 151.728 67.068
5.00 150.269 66.674
5.01 149.253 66.254
5.02 149.772 65.740
5.03 152.908 65.477
5.04 160.774 65.375
5.05 169.596 65.045
5.06 174.577 64.383
5.07 179.855 64.129
5.08 190.051 65.570
5.09 205.498 68.486
5.10 214.307 71.627
5.11 219.447 73.663
5.12 223.807 74.455
5.13 231.436 74.655
5.14 238.013 74.807
5.15 243.481 74.805
5.16 248.716 74.395
5.17 253.435 73.569
5.18 257.930 72.654
5.19 259.823 72.144
5.20 259.698 72.055
5.21 258.680 72.053
5.22 256.210 71.855
5.23 254.133 71.475
5.24 253.928 71.004
5.25 255.769 70.389
5.26 256.040 69.479
5.27 251.824 68.110
5.28 245.885 66.128
5.29 241.104 63.174
5.30 241.817 58.733
5.31 245.906 52.448
5.32 --undefined-- 47.954
5.33 --undefined-- 48.266
5.34 --undefined-- 47.831
5.35 --undefined-- 45.701
5.36 --undefined-- 43.433
5.37 --undefined-- 47.750
5.38 --undefined-- 59.640
5.39 240.189 67.844
5.40 222.053 72.339
5.41 195.175 --undefined--
5.42 185.888 --undefined--
5.43 --undefined-- --undefined--
5.44 --undefined-- --undefined--
