Time Pitch Intensity
0.01 --undefined-- --undefined--
0.02 233.476 --undefined--
0.03 231.447 --undefined--
0.04 223.906 --undefined--
0.05 216.225 71.215
0.06 211.816 70.754
0.07 207.846 70.226
0.08 202.724 69.471
0.09 193.273 69.070
0.10 181.501 69.520
0.11 178.115 69.649
0.12 --undefined-- 68.337
0.13 --undefined-- 65.888
0.14 --undefined-- 63.068
0.15 --undefined-- 60.941
0.16 --undefined-- 61.249
0.17 87.460 62.334
0.18 124.000 63.707
0.19 148.580 65.076
0.20 153.749 66.440
0.21 151.450 67.434
0.22 153.135 67.977
0.23 150.694 68.482
0.24 144.595 68.619
0.25 141.214 68.259
0.26 136.858 67.796
0.27 133.333 67.312
0.28 132.674 66.656
0.29 131.184 66.032
0.30 129.785 65.583
0.31 128.867 64.920
0.32 127.349 63.197
0.33 125.544 59.576
0.34 --undefined-- 53.426
0.35 --undefined-- 44.135
0.36 --undefined-- 36.947
0.37 --undefined-- 43.876
0.38 --undefined-- 50.671
0.39 --undefined-- 58.195
0.40 --undefined-- 64.954
0.41 173.249 68.707
0.42 171.889 69.867
0.43 169.718 69.712
0.44 168.035 69.407
0.45 166.420 69.268
0.46 164.818 69.211
0.47 163.868 69.217
0.48 163.763 69.166
0.49 164.895 68.976
0.50 163.868 68.044
0.51 162.427 65.069
0.52 --undefined-- 58.980
0.53 --undefined-- 49.002
0.54 --undefined-- 40.702
0.55 --undefined-- 45.919
0.56 --undefined-- 51.685
0.57 --undefined-- 55.542
0.58 --undefined-- 57.438
0.59 --undefined-- 57.374
0.60 --undefined-- 56.511
0.61 --undefined-- 56.446
0.62 --undefined-- 56.466
0.63 --undefined-- 60.480
0.64 191.121 66.263
0.65 178.111 69.184
0.66 158.683 69.660
0.67 145.630 69.127
0.68 140.481 68.739
0.69 140.501 68.563
0.70 144.054 68.378
0.71 149.723 68.252
0.72 155.551 68.270
0.73 161.470 68.359
0.74 167.100 68.373
0.75 171.642 68.030
0.76 175.064 66.759
0.77 178.946 63.746
0.78 --undefined-- 58.108
0.79 --undefined-- 49.247
0.80 --undefined-- 43.167
0.81 --undefined-- 46.540
0.82 --undefined-- 49.238
0.83 --undefined-- 50.532
0.84 --undefined-- 51.534
0.85 --undefined-- 57.275
0.86 242.448 64.861
0.87 244.090 69.781
0.88 243.010 72.327
0.89 233.899 73.263
0.90 224.571 73.375
0.91 221.455 73.522
0.92 220.557 73.705
0.93 220.517 73.589
0.94 220.690 73.395
0.95 220.894 73.376
0.96 221.142 73.384
0.97 221.362 73.273
0.98 220.733 72.992
0.99 219.633 72.518
1.00 218.414 71.835
1.01 215.269 70.863
1.02 208.540 69.459
1.03 191.450 67.442
1.04 --undefined-- 64.907
1.05 --undefined-- 61.741
1.06 --undefined-- 56.499
1.07 --undefined-- 48.446
1.08 --undefined-- 40.558
1.09 --undefined-- 35.401
1.10 --undefined-- 31.649
1.11 --undefined-- 29.015
1.12 --undefined-- 28.693
1.13 --undefined-- 30.011
1.14 --undefined-- 35.470
1.15 --undefined-- 39.890
1.16 --undefined-- 40.978
1.17 --undefined-- 40.065
1.18 --undefined-- 39.238
1.19 --undefined-- 38.026
1.20 --undefined-- 36.566
1.21 --undefined-- 36.992
1.22 --undefined-- 38.573
1.23 --undefined-- 38.156
1.24 --undefined-- 35.606
1.25 --undefined-- 34.096
1.26 --undefined-- 34.472
1.27 --undefined-- 34.486
1.28 --undefined-- 33.741
1.29 --undefined-- 32.917
1.30 --undefined-- 34.095
1.31 --undefined-- 35.747
1.32 --undefined-- 36.184
1.33 --undefined-- 35.452
1.34 --undefined-- 34.503
1.35 --undefined-- 34.243
1.36 --undefined-- 35.055
1.37 --undefined-- 35.143
1.38 --undefined-- 34.547
1.39 --undefined-- 36.316
1.40 --undefined-- 38.076
1.41 --undefined-- 47.623
1.42 --undefined-- 57.929
1.43 201.080 63.803
1.44 179.869 66.619
1.45 176.941 68.162
1.46 179.724 69.565
1.47 183.985 70.736
1.48 183.873 71.517
1.49 182.958 72.176
1.50 183.229 73.011
1.51 183.827 73.619
1.52 181.484 73.179
1.53 170.884 71.744
1.54 170.325 70.756
1.55 170.678 71.006
1.56 172.313 71.830
1.57 173.512 72.632
1.58 175.406 73.355
1.59 174.305 74.149
1.60 173.041 74.563
1.61 171.736 74.281
1.62 170.859 73.653
1.63 170.453 72.988
1.64 170.567 72.281
1.65 170.594 71.542
1.66 171.387 71.198
1.67 175.512 71.158
1.68 176.090 70.829
1.69 178.066 70.238
1.70 177.503 69.322
1.71 174.663 67.863
1.72 170.625 65.470
1.73 169.396 61.647
1.74 180.515 55.960
1.75 --undefined-- 48.951
1.76 --undefined-- 54.348
1.77 --undefined-- 62.457
1.78 195.665 67.290
1.79 191.592 69.361
1.80 189.338 69.820
1.81 187.807 69.881
1.82 187.732 70.021
1.83 188.673 70.230
1.84 189.408 70.459
1.85 190.111 70.655
1.86 190.778 70.785
1.87 191.441 70.891
1.88 192.258 71.012
1.89 193.850 70.991
1.90 194.079 70.219
1.91 190.613 67.771
1.92 171.702 62.964
1.93 --undefined-- 55.895
1.94 --undefined-- 50.660
1.95 --undefined-- 52.408
1.96 --undefined-- 58.364
1.97 213.579 65.355
1.98 192.477 69.321
1.99 184.941 70.827
2.00 182.250 71.233
2.01 177.935 71.337
2.02 174.694 71.663
2.03 172.451 72.207
2.04 171.148 72.503
2.05 170.513 72.535
2.06 170.572 72.503
2.07 171.671 72.466
2.08 173.523 72.331
2.09 175.827 72.123
2.10 179.086 71.958
2.11 182.859 71.746
2.12 187.005 71.382
2.13 191.625 71.049
2.14 197.271 71.048
2.15 203.336 71.469
2.16 208.913 72.083
2.17 213.280 72.935
2.18 220.974 74.487
2.19 228.481 76.140
2.20 232.455 77.197
2.21 236.593 77.782
2.22 239.156 78.125
2.23 238.177 78.274
2.24 234.168 78.069
2.25 231.419 77.242
2.26 225.735 75.719
2.27 216.573 74.002
2.28 205.901 72.527
2.29 197.154 70.913
2.30 189.013 69.843
2.31 181.237 70.534
2.32 221.625 71.558
2.33 227.841 71.722
2.34 232.999 70.718
2.35 --undefined-- 68.730
2.36 --undefined-- 66.426
2.37 --undefined-- 64.595
2.38 140.247 63.975
2.39 155.054 64.588
2.40 165.980 66.819
2.41 163.440 68.886
2.42 161.936 69.685
2.43 162.374 69.975
2.44 162.213 70.223
2.45 161.867 70.086
2.46 162.419 69.553
2.47 164.155 69.074
2.48 166.627 68.928
2.49 169.448 68.877
2.50 171.761 68.334
2.51 172.920 66.637
2.52 172.154 63.311
2.53 177.806 58.171
2.54 --undefined-- 51.424
2.55 --undefined-- 46.625
2.56 --undefined-- 46.422
2.57 --undefined-- 46.140
2.58 --undefined-- 46.439
2.59 --undefined-- 46.730
2.60 --undefined-- 46.737
2.61 --undefined-- 53.855
2.62 --undefined-- 63.171
2.63 201.042 68.585
2.64 189.523 70.806
2.65 181.494 71.264
2.66 178.297 71.358
2.67 176.122 71.506
2.68 174.365 71.563
2.69 172.895 71.398
2.70 171.772 71.100
2.71 170.945 70.836
2.72 170.230 70.636
2.73 168.999 70.540
2.74 169.282 70.805
2.75 172.314 71.261
2.76 172.770 71.515
2.77 173.366 71.639
2.78 173.497 71.733
2.79 173.527 71.758
2.80 173.341 71.684
2.81 173.716 71.477
2.82 175.411 71.040
2.83 176.220 70.183
2.84 172.117 68.764
2.85 161.728 67.057
2.86 132.821 66.096
2.87 122.446 65.584
2.88 121.378 63.814
2.89 122.008 59.937
2.90 --undefined-- 53.267
2.91 --undefined-- 51.039
2.92 --undefined-- 57.696
2.93 --undefined-- 60.247
2.94 --undefined-- 58.381
2.95 --undefined-- 52.199
2.96 --undefined-- 48.478
2.97 --undefined-- 57.681
2.98 200.257 65.091
2.99 181.114 68.894
3.00 167.681 70.202
3.01 163.592 70.546
3.02 161.325 70.740
3.03 160.371 70.717
3.04 159.734 70.459
3.05 159.757 70.026
3.06 159.772 69.504
3.07 158.817 68.901
3.08 156.334 67.597
3.09 153.036 64.661
3.10 148.382 59.552
3.11 --undefined-- 52.155
3.12 --undefined-- 42.461
3.13 --undefined-- 34.563
3.14 --undefined-- 40.021
3.15 --undefined-- 47.551
3.16 --undefined-- 52.603
3.17 --undefined-- 60.553
3.18 227.785 67.700
3.19 227.126 71.626
3.20 228.324 73.256
3.21 230.602 73.992
3.22 231.423 74.514
3.23 230.311 74.625
3.24 226.981 74.831
3.25 228.934 75.638
3.26 228.789 76.390
3.27 230.377 77.001
3.28 232.551 77.444
3.29 233.329 77.491
3.30 233.428 77.173
3.31 233.288 76.548
3.32 232.134 75.371
3.33 230.673 73.111
3.34 231.950 69.028
3.35 242.482 62.308
3.36 --undefined-- 52.807
3.37 --undefined-- 44.832
3.38 --undefined-- 39.999
3.39 --undefined-- 37.432
3.40 --undefined-- 41.955
3.41 --undefined-- 55.569
3.42 --undefined-- 65.037
3.43 243.416 70.479
3.44 237.556 73.030
3.45 233.017 73.798
3.46 230.209 73.852
3.47 228.223 73.868
3.48 226.333 74.029
3.49 224.770 74.307
3.50 223.330 74.584
3.51 222.088 74.821
3.52 221.364 75.052
3.53 221.515 75.312
3.54 222.509 75.645
3.55 224.081 76.018
3.56 225.377 76.332
3.57 225.478 76.541
3.58 224.469 76.789
3.59 224.497 77.233
3.60 225.164 77.662
3.61 225.335 77.820
3.62 225.475 77.712
3.63 225.393 77.434
3.64 225.163 77.011
3.65 224.338 76.366
3.66 221.977 75.344
3.67 216.065 73.695
3.68 205.952 71.015
3.69 186.875 66.976
3.70 --undefined-- 62.446
3.71 239.451 58.751
3.72 219.714 54.416
3.73 --undefined-- 48.619
3.74 --undefined-- 42.850
3.75 --undefined-- 39.271
3.76 --undefined-- 39.380
3.77 --undefined-- 43.157
3.78 --undefined-- 47.263
3.79 --undefined-- 50.358
3.80 --undefined-- 52.445
3.81 --undefined-- 53.565
3.82 --undefined-- 54.138
3.83 --undefined-- 54.095
3.84 --undefined-- 53.382
3.85 --undefined-- 57.652
3.86 --undefined-- 67.052
3.87 243.621 73.143
3.88 239.867 76.071
3.89 234.510 76.825
3.90 231.427 76.507
3.91 228.108 75.978
3.92 223.370 75.986
3.93 224.371 76.535
3.94 223.379 76.868
3.95 222.952 76.992
3.96 222.463 77.065
3.97 221.338 76.949
3.98 218.645 76.354
3.99 214.307 74.863
4.00 211.078 71.870
4.01 214.941 66.746
4.02 224.373 59.346
4.03 --undefined-- 55.436
4.04 --undefined-- 57.360
4.05 --undefined-- 58.823
4.06 --undefined-- 59.452
4.07 --undefined-- 60.166
4.08 --undefined-- 59.617
4.09 --undefined-- 57.080
4.10 --undefined-- 54.877
4.11 --undefined-- 59.183
4.12 186.503 64.740
4.13 173.794 67.379
4.14 158.463 67.882
4.15 150.455 67.572
4.16 148.917 67.256
4.17 149.838 67.095
4.18 153.343 67.163
4.19 157.819 67.482
4.20 161.982 67.844
4.21 165.810 67.838
4.22 167.916 66.802
4.23 164.760 64.090
4.24 162.907 60.229
4.25 177.667 61.039
4.26 197.827 66.008
4.27 199.085 69.143
4.28 200.520 70.341
4.29 200.455 70.405
4.30 199.632 70.140
4.31 198.854 69.919
4.32 197.522 69.594
4.33 196.513 68.628
4.34 195.557 66.340
4.35 189.572 62.371
4.36 188.505 57.823
4.37 191.101 54.523
4.38 --undefined-- 52.546
4.39 --undefined-- 50.872
4.40 --undefined-- 53.363
4.41 192.555 59.727
4.42 184.987 63.952
4.43 179.409 66.111
4.44 171.038 67.257
4.45 164.059 68.143
4.46 158.367 68.765
4.47 156.020 69.052
4.48 156.048 69.092
4.49 155.740 68.801
4.50 154.842 68.145
4.51 153.521 67.544
4.52 152.476 67.568
4.53 152.905 68.076
4.54 153.122 68.667
4.55 152.249 69.195
4.56 150.608 69.434
4.57 148.741 68.789
4.58 145.468 66.533
4.59 138.149 62.371
4.60 137.884 56.486
4.61 --undefined-- 49.643
4.62 --undefined-- 43.367
4.63 --undefined-- 42.443
4.64 --undefined-- 46.239
4.65 --undefined-- 55.797
4.66 189.152 63.066
4.67 184.440 66.806
4.68 175.636 68.119
4.69 170.488 68.178
4.70 165.194 67.812
4.71 161.522 67.193
4.72 154.004 66.270
4.73 146.129 64.890
4.74 133.291 63.043
4.75 125.873 60.868
4.76 --undefined-- 58.283
4.77 --undefined-- 56.238
4.78 --undefined-- 56.298
4.79 --undefined-- 57.790
4.80 118.262 59.949
4.81 125.286 61.497
4.82 138.634 62.505
4.83 150.680 63.562
4.84 153.144 64.604
4.85 153.613 65.549
4.86 153.764 66.299
4.87 153.553 66.836
4.88 152.380 67.179
4.89 152.088 67.428
4.90 152.745 67.664
4.91 154.399 67.883
4.92 155.638 68.127
4.93 156.613 68.471
4.94 157.743 68.832
4.95 158.556 69.136
4.96 159.472 69.344
4.97 160.669 69.514
4.98 162.175 69.780
4.99 163.659 70.078
5.00 164.458 70.295
5.01 164.955 70.455
5.02 166.234 70.538
5.03 167.497 70.507
5.04 167.873 70.330
5.05 167.850 69.937
5.06 167.503 69.195
5.07 162.324 67.777
5.08 146.932 65.243
5.09 --undefined-- 61.604
5.10 --undefined-- 56.877
5.11 --undefined-- 50.338
5.12 --undefined-- 40.668
5.13 --undefined-- 35.260
5.14 --undefined-- 35.075
5.15 --undefined-- 33.083
5.16 --undefined-- 32.538
5.17 --undefined-- 33.068
5.18 --undefined-- 34.535
5.19 --undefined-- 36.130
5.20 --undefined-- 36.369
5.21 --undefined-- 35.739
5.22 --undefined-- 34.862
5.23 --undefined-- 33.655
5.24 --undefined-- 33.662
5.25 --undefined-- 35.271
5.26 --undefined-- 35.136
5.27 --undefined-- 34.670
5.28 --undefined-- 36.791
5.29 --undefined-- 37.196
5.30 --undefined-- 34.497
5.31 --undefined-- 33.150
5.32 --undefined-- 36.137
5.33 --undefined-- 37.531
5.34 --undefined-- 36.959
5.35 --undefined-- 36.165
5.36 --undefined-- 35.226
5.37 --undefined-- 32.880
5.38 --undefined-- 32.719
5.39 --undefined-- 34.638
5.40 --undefined-- 35.305
5.41 --undefined-- 35.332
5.42 --undefined-- 35.353
5.43 --undefined-- 35.479
5.44 --undefined-- 35.847
5.45 --undefined-- 35.983
5.46 --undefined-- 36.677
5.47 --undefined-- 37.122
5.48 --undefined-- 35.773
5.49 --undefined-- 34.116
5.50 --undefined-- 34.543
5.51 --undefined-- 36.847
5.52 --undefined-- 38.821
5.53 --undefined-- 38.957
5.54 --undefined-- 36.882
5.55 --undefined-- 34.139
5.56 --undefined-- 33.655
5.57 --undefined-- 34.245
5.58 --undefined-- 35.076
5.59 --undefined-- 35.509
5.60 --undefined-- 34.761
5.61 --undefined-- 34.002
5.62 --undefined-- 34.912
5.63 --undefined-- 36.510
5.64 --undefined-- 37.225
5.65 --undefined-- 36.457
5.66 --undefined-- 36.906
5.67 --undefined-- 37.508
5.68 --undefined-- 36.191
5.69 --undefined-- 35.931
5.70 --undefined-- 37.187
5.71 --undefined-- 36.509
5.72 --undefined-- 33.987
5.73 --undefined-- 31.766
5.74 --undefined-- 30.513
5.75 --undefined-- 28.634
5.76 --undefined-- 28.826
5.77 --undefined-- 31.711
5.78 --undefined-- 34.784
5.79 --undefined-- 36.884
5.80 --undefined-- 36.933
5.81 --undefined-- 35.032
5.82 --undefined-- 33.445
5.83 --undefined-- 41.713
5.84 --undefined-- 56.196
5.85 226.991 65.928
5.86 227.820 71.377
5.87 222.628 73.833
5.88 218.926 74.658
5.89 217.908 75.207
5.90 218.578 75.878
5.91 220.176 76.569
5.92 221.556 77.120
5.93 222.153 77.526
5.94 222.186 77.774
5.95 222.137 77.894
5.96 221.885 77.886
5.97 221.190 77.509
5.98 220.020 76.196
5.99 203.035 73.743
6.00 194.859 71.442
6.01 196.993 70.647
6.02 198.511 70.828
6.03 202.614 72.011
6.04 211.901 74.342
6.05 211.250 76.314
6.06 209.229 77.088
6.07 206.391 76.842
6.08 204.323 76.113
6.09 203.166 75.441
6.10 201.756 74.962
6.11 199.731 74.541
6.12 198.856 74.153
6.13 200.196 --undefined--
6.14 200.060 --undefined--
6.15 --undefined-- --undefined--
6.16 --undefined-- --undefined--
