Time Pitch Intensity
0.01 --undefined-- --undefined--
0.02 205.116 --undefined--
0.03 207.767 --undefined--
0.04 208.388 --undefined--
0.05 206.964 71.655
0.06 209.164 66.716
0.07 --undefined-- 58.866
0.08 --undefined-- 49.941
0.09 --undefined-- 46.011
0.10 --undefined-- 45.419
0.11 --undefined-- 47.361
0.12 --undefined-- 55.203
0.13 --undefined-- 64.284
0.14 221.527 69.645
0.15 207.947 72.015
0.16 196.847 72.618
0.17 188.226 72.780
0.18 182.879 73.108
0.19 179.580 73.445
0.20 176.969 73.667
0.21 175.591 73.746
0.22 174.811 73.675
0.23 174.296 73.488
0.24 173.691 73.277
0.25 173.257 73.113
0.26 172.544 73.121
0.27 171.675 73.216
0.28 170.419 73.098
0.29 169.861 72.722
0.30 170.487 72.254
0.31 172.373 71.943
0.32 173.627 71.765
0.33 175.000 71.612
0.34 176.465 71.507
0.35 177.726 71.272
0.36 178.810 70.186
0.37 177.223 67.337
0.38 170.491 62.032
0.39 --undefined-- 54.375
0.40 --undefined-- 47.294
0.41 --undefined-- 45.725
0.42 --undefined-- 46.159
0.43 --undefined-- 47.697
0.44 --undefined-- 49.106
0.45 --undefined-- 50.954
0.46 --undefined-- 52.742
0.47 --undefined-- 56.963
0.48 --undefined-- 65.534
0.49 210.590 71.143
0.50 200.463 73.915
0.51 190.928 75.044
0.52 186.134 75.407
0.53 183.781 75.173
0.54 183.036 74.229
0.55 182.479 72.568
0.56 180.687 70.130
0.57 176.195 66.868
0.58 172.935 63.026
0.59 172.874 58.505
0.60 --undefined-- 52.267
0.61 --undefined-- 43.861
0.62 --undefined-- 38.963
0.63 --undefined-- 39.174
0.64 --undefined-- 41.536
0.65 --undefined-- 48.635
0.66 --undefined-- 59.531
0.67 --undefined-- 67.133
0.68 186.293 70.945
0.69 179.672 72.218
0.70 175.272 72.366
0.71 173.746 72.398
0.72 172.680 72.538
0.73 171.881 72.766
0.74 172.398 73.176
0.75 173.017 73.482
0.76 172.096 73.430
0.77 171.850 73.239
0.78 171.763 73.052
0.79 172.552 72.870
0.80 174.074 72.712
0.81 174.415 72.676
0.82 174.962 72.710
0.83 175.670 72.523
0.84 176.518 71.943
0.85 177.212 71.339
0.86 181.420 71.681
0.87 181.655 72.880
0.88 180.999 74.006
0.89 179.678 74.951
0.90 178.532 75.805
0.91 177.901 76.298
0.92 176.427 76.256
0.93 174.802 76.121
0.94 173.793 76.186
0.95 173.336 76.315
0.96 173.062 76.349
0.97 172.403 76.257
0.98 171.808 76.086
0.99 171.639 75.801
1.00 171.352 75.440
1.01 171.213 75.148
1.02 171.496 74.955
1.03 171.877 74.758
1.04 172.014 74.585
1.05 171.756 74.393
1.06 171.110 74.039
1.07 170.732 73.438
1.08 168.860 72.273
1.09 164.094 70.213
1.10 --undefined-- 67.413
1.11 --undefined-- 63.957
1.12 --undefined-- 59.506
1.13 --undefined-- 53.582
1.14 --undefined-- 45.728
1.15 --undefined-- 41.776
1.16 --undefined-- 41.851
1.17 --undefined-- 41.736
1.18 --undefined-- 41.497
1.19 --undefined-- 42.077
1.20 --undefined-- 42.045
1.21 --undefined-- 42.475
1.22 --undefined-- 42.792
1.23 --undefined-- 40.566
1.24 --undefined-- 37.464
1.25 --undefined-- 37.100
1.26 --undefined-- 38.030
1.27 --undefined-- 39.582
1.28 --undefined-- 41.593
1.29 --undefined-- 41.886
1.30 --undefined-- 40.629
1.31 --undefined-- 41.198
1.32 --undefined-- 41.823
1.33 --undefined-- 41.359
1.34 --undefined-- 40.830
1.35 --undefined-- 40.719
1.36 --undefined-- 40.983
1.37 --undefined-- 41.006
1.38 --undefined-- 41.581
1.39 --undefined-- 41.312
1.40 --undefined-- 38.929
1.41 --undefined-- 37.709
1.42 --undefined-- 38.729
1.43 --undefined-- 40.099
1.44 --undefined-- 40.419
1.45 --undefined-- 40.115
1.46 --undefined-- 40.148
1.47 --undefined-- 40.283
1.48 --undefined-- 41.226
1.49 --undefined-- 41.280
1.50 --undefined-- 39.596
1.51 --undefined-- 37.847
1.52 --undefined-- 39.572
1.53 --undefined-- 41.282
1.54 --undefined-- 41.255
1.55 --undefined-- 40.964
1.56 --undefined-- 40.458
1.57 --undefined-- 40.404
1.58 --undefined-- 44.130
1.59 --undefined-- 53.019
1.60 --undefined-- 63.704
1.61 240.008 70.905
1.62 234.952 74.934
1.63 230.500 76.687
1.64 227.097 77.175
1.65 225.789 77.225
1.66 226.354 77.094
1.67 227.338 76.857
1.68 229.213 76.815
1.69 232.145 77.023
1.70 233.939 77.121
1.71 235.026 76.975
1.72 234.799 76.620
1.73 232.147 75.836
1.74 225.990 74.017
1.75 217.752 70.275
1.76 217.616 63.916
1.77 --undefined-- 54.948
1.78 --undefined-- 48.959
1.79 --undefined-- 47.704
1.80 --undefined-- 47.959
1.81 --undefined-- 48.011
1.82 --undefined-- 46.958
1.83 --undefined-- 49.643
1.84 --undefined-- 58.333
1.85 228.153 64.645
1.86 219.235 68.236
1.87 215.152 70.042
1.88 211.629 70.842
1.89 208.311 71.155
1.90 205.949 71.301
1.91 204.993 71.518
1.92 205.453 71.916
1.93 207.113 72.498
1.94 209.762 73.215
1.95 212.760 73.998
1.96 215.268 74.767
1.97 217.291 75.356
1.98 221.117 75.611
1.99 226.885 75.564
2.00 233.664 75.303
2.01 242.378 74.898
2.02 249.591 74.344
2.03 255.942 73.502
2.04 261.133 72.483
2.05 265.503 71.156
2.06 269.827 69.327
2.07 268.512 67.301
2.08 264.006 65.320
2.09 254.423 63.806
2.10 230.645 63.138
2.11 216.560 62.399
2.12 200.629 60.803
2.13 211.628 59.247
2.14 214.756 59.371
2.15 202.836 62.008
2.16 213.305 65.339
2.17 216.097 67.953
2.18 215.042 69.762
2.19 212.000 70.916
2.20 210.109 71.437
2.21 207.830 71.383
2.22 207.144 71.096
2.23 209.399 71.030
2.24 213.807 71.308
2.25 218.268 71.726
2.26 223.658 72.123
2.27 228.964 72.445
2.28 231.981 72.697
2.29 232.824 72.787
2.30 230.799 72.579
2.31 226.043 71.941
2.32 218.967 71.307
2.33 213.788 71.329
2.34 208.471 71.871
2.35 203.644 72.497
2.36 198.639 72.883
2.37 194.172 73.227
2.38 189.516 73.743
2.39 184.445 74.102
2.40 180.732 74.099
2.41 179.357 73.533
2.42 179.217 72.248
2.43 179.522 70.415
2.44 177.917 68.324
2.45 175.069 66.028
2.46 176.520 63.094
2.47 175.581 58.576
2.48 --undefined-- 51.764
2.49 --undefined-- 44.457
2.50 --undefined-- 42.795
2.51 --undefined-- 44.342
2.52 --undefined-- 52.117
2.53 --undefined-- 62.253
2.54 --undefined-- 69.071
2.55 255.684 72.563
2.56 251.653 73.584
2.57 251.344 73.109
2.58 251.066 71.694
2.59 249.873 69.159
2.60 237.588 65.093
2.61 234.136 59.675
2.62 --undefined-- 53.497
2.63 --undefined-- 47.540
2.64 --undefined-- 44.239
2.65 --undefined-- 42.860
2.66 --undefined-- 42.514
2.67 --undefined-- 45.018
2.68 --undefined-- 48.751
2.69 --undefined-- 51.478
2.70 --undefined-- 57.737
2.71 --undefined-- 65.399
2.72 276.209 70.379
2.73 267.942 73.345
2.74 260.681 75.108
2.75 257.682 75.988
2.76 256.314 76.085
2.77 255.858 75.661
2.78 257.361 75.412
2.79 257.943 75.556
2.80 257.820 75.736
2.81 257.389 75.830
2.82 256.410 75.851
2.83 255.386 75.801
2.84 253.995 75.570
2.85 250.904 74.889
2.86 244.344 73.358
2.87 237.147 70.485
2.88 233.026 65.742
2.89 238.495 58.989
2.90 --undefined-- 55.007
2.91 --undefined-- 63.147
2.92 --undefined-- 69.603
2.93 215.549 72.908
2.94 199.897 74.193
2.95 182.730 74.686
2.96 172.851 74.739
2.97 167.756 74.238
2.98 165.752 73.607
2.99 165.584 73.184
3.00 167.087 72.820
3.01 171.291 72.553
3.02 176.051 72.353
3.03 180.576 72.019
3.04 189.357 71.919
3.05 195.219 72.522
3.06 202.428 73.518
3.07 208.911 74.391
3.08 212.952 74.924
3.09 215.400 74.868
3.10 215.682 73.660
3.11 214.030 70.537
3.12 216.373 64.712
3.13 --undefined-- 55.844
3.14 --undefined-- 49.303
3.15 --undefined-- 53.549
3.16 --undefined-- 62.610
3.17 223.640 68.932
3.18 213.407 71.947
3.19 203.665 72.524
3.20 195.887 72.067
3.21 192.055 71.822
3.22 188.923 71.925
3.23 186.745 72.077
3.24 184.934 71.999
3.25 183.921 71.634
3.26 183.433 71.223
3.27 183.524 70.732
3.28 183.060 69.333
3.29 178.568 66.086
3.30 176.687 60.617
3.31 --undefined-- 53.078
3.32 --undefined-- 44.887
3.33 --undefined-- 42.859
3.34 --undefined-- 43.954
3.35 --undefined-- 43.657
3.36 --undefined-- 43.158
3.37 --undefined-- 43.773
3.38 --undefined-- 45.218
3.39 --undefined-- 47.202
3.40 --undefined-- 51.028
3.41 --undefined-- 58.796
3.42 247.327 65.211
3.43 244.694 68.865
3.44 244.981 70.575
3.45 245.494 71.227
3.46 245.872 71.304
3.47 246.138 70.959
3.48 245.908 70.313
3.49 243.244 69.609
3.50 238.350 68.893
3.51 233.825 67.450
3.52 232.337 64.275
3.53 241.479 58.807
3.54 --undefined-- 51.948
3.55 --undefined-- 47.314
3.56 --undefined-- 45.616
3.57 --undefined-- 45.588
3.58 --undefined-- 46.113
3.59 --undefined-- 46.513
3.60 --undefined-- 46.882
3.61 --undefined-- 47.458
3.62 --undefined-- 48.142
3.63 --undefined-- 48.939
3.64 --undefined-- 50.460
3.65 --undefined-- 52.290
3.66 --undefined-- 53.466
3.67 --undefined-- 57.549
3.68 180.131 63.012
3.69 162.798 65.916
3.70 149.174 66.693
3.71 141.228 66.525
3.72 138.952 66.047
3.73 138.148 65.472
3.74 137.733 64.955
3.75 138.062 64.526
3.76 139.116 64.293
3.77 139.683 64.123
3.78 139.999 63.721
3.79 139.633 63.289
3.80 140.463 62.975
3.81 140.322 62.786
3.82 140.612 62.504
3.83 140.173 61.996
3.84 140.629 61.370
3.85 138.652 60.712
3.86 137.292 60.326
3.87 136.763 60.173
3.88 137.305 60.004
3.89 138.367 59.504
3.90 139.060 58.579
3.91 144.676 57.009
3.92 --undefined-- 54.422
3.93 --undefined-- 50.669
3.94 --undefined-- 45.667
3.95 --undefined-- 42.223
3.96 --undefined-- 41.996
3.97 --undefined-- 41.728
3.98 --undefined-- 41.541
3.99 --undefined-- 41.975
4.00 --undefined-- 42.534
4.01 --undefined-- 43.372
4.02 --undefined-- 43.980
4.03 --undefined-- 43.739
4.04 --undefined-- 43.351
4.05 --undefined-- 42.512
4.06 --undefined-- 41.691
4.07 --undefined-- 40.325
4.08 --undefined-- 39.339
4.09 --undefined-- 40.488
4.10 --undefined-- 42.062
4.11 --undefined-- 44.522
4.12 --undefined-- 46.695
4.13 --undefined-- 53.257
4.14 --undefined-- 63.198
4.15 247.653 69.496
4.16 238.290 72.919
4.17 231.677 74.759
4.18 228.114 76.095
4.19 225.756 77.340
4.20 223.389 78.626
4.21 223.377 79.524
4.22 226.218 79.367
4.23 232.050 78.132
4.24 232.900 76.771
4.25 232.355 75.978
4.26 231.803 75.439
4.27 231.739 74.964
4.28 231.559 74.600
4.29 230.590 74.122
4.30 228.393 72.952
4.31 217.149 70.451
4.32 203.718 66.649
4.33 210.345 61.874
4.34 --undefined-- 55.796
4.35 --undefined-- 48.190
4.36 --undefined-- 43.958
4.37 --undefined-- 46.101
4.38 --undefined-- 51.204
4.39 --undefined-- 56.642
4.40 --undefined-- 63.983
4.41 --undefined-- 70.252
4.42 266.728 74.040
4.43 262.819 76.178
4.44 260.934 77.212
4.45 260.803 77.437
4.46 261.588 76.810
4.47 263.449 75.247
4.48 264.295 72.970
4.49 263.517 70.390
4.50 247.353 67.618
4.51 234.100 64.353
4.52 236.060 59.721
4.53 --undefined-- 52.975
4.54 --undefined-- 49.973
4.55 --undefined-- 54.286
4.56 --undefined-- 56.802
4.57 --undefined-- 56.491
4.58 --undefined-- 55.669
4.59 --undefined-- 60.189
4.60 209.969 64.684
4.61 212.508 66.871
4.62 203.489 67.860
4.63 188.317 68.371
4.64 165.362 68.572
4.65 153.488 68.693
4.66 149.748 68.859
4.67 147.647 68.911
4.68 145.283 68.775
4.69 143.520 68.492
4.70 140.804 68.130
4.71 138.262 67.728
4.72 136.773 67.280
4.73 135.243 66.835
4.74 134.697 66.554
4.75 136.248 66.570
4.76 139.534 66.656
4.77 141.337 66.107
4.78 148.624 64.910
4.79 162.221 63.995
4.80 165.167 63.977
4.81 180.240 66.205
4.82 200.369 69.793
4.83 209.570 71.856
4.84 215.984 72.020
4.85 217.989 70.940
4.86 216.713 68.863
4.87 209.942 65.394
4.88 218.233 60.403
4.89 --undefined-- 54.701
4.90 --undefined-- 54.130
4.91 --undefined-- 62.785
4.92 211.167 69.241
4.93 205.502 72.739
4.94 196.929 74.193
4.95 188.635 74.594
4.96 182.216 74.383
4.97 178.291 73.510
4.98 175.557 72.023
4.99 173.179 71.046
5.00 173.714 71.091
5.01 171.457 71.332
5.02 171.092 71.611
5.03 170.166 71.774
5.04 168.059 71.680
5.05 166.182 71.393
5.06 163.139 70.866
5.07 158.395 69.944
5.08 153.945 68.740
5.09 149.354 67.103
5.10 143.526 64.330
5.11 136.676 60.117
5.12 --undefined-- 54.713
5.13 --undefined-- 48.877
5.14 --undefined-- 43.855
5.15 --undefined-- 42.462
5.16 --undefined-- 44.758
5.17 --undefined-- 47.593
5.18 --undefined-- 47.880
5.19 --undefined-- 45.040
5.20 --undefined-- 40.441
5.21 --undefined-- 39.825
5.22 --undefined-- 47.904
5.23 --undefined-- 58.978
5.24 --undefined-- 66.695
5.25 207.884 71.081
5.26 209.679 73.014
5.27 208.716 73.758
5.28 207.759 74.411
5.29 207.685 75.242
5.30 208.209 76.153
5.31 209.349 77.041
5.32 211.176 77.820
5.33 212.283 78.488
5.34 211.471 78.825
5.35 209.519 78.600
5.36 207.823 78.005
5.37 207.368 77.539
5.38 207.601 77.345
5.39 208.256 77.234
5.40 208.544 77.072
5.41 209.099 76.784
5.42 209.572 76.399
5.43 208.189 75.851
5.44 204.775 74.898
5.45 200.457 73.218
5.46 194.496 70.496
5.47 205.256 66.824
5.48 204.062 63.086
5.49 203.805 58.667
5.50 --undefined-- 51.915
5.51 --undefined-- 45.327
5.52 --undefined-- 43.569
5.53 --undefined-- 42.179
5.54 --undefined-- 41.053
5.55 --undefined-- 41.032
5.56 --undefined-- 41.891
5.57 --undefined-- 41.782
5.58 --undefined-- 40.087
5.59 --undefined-- 39.192
5.60 --undefined-- 39.648
5.61 --undefined-- 39.296
5.62 --undefined-- 37.955
5.63 --undefined-- 37.803
5.64 --undefined-- 38.168
5.65 --undefined-- 38.697
5.66 --undefined-- 39.189
5.67 --undefined-- 38.503
5.68 --undefined-- 37.193
5.69 --undefined-- 38.075
5.70 --undefined-- 39.063
5.71 --undefined-- 39.529
5.72 --undefined-- 41.047
5.73 --undefined-- 41.170
5.74 --undefined-- 39.074
5.75 --undefined-- 37.892
5.76 --undefined-- 39.306
5.77 --undefined-- 40.685
5.78 --undefined-- 41.515
5.79 --undefined-- 42.117
5.80 --undefined-- 42.552
5.81 --undefined-- 42.530
5.82 --undefined-- 42.530
5.83 --undefined-- 42.290
5.84 --undefined-- 41.744
5.85 --undefined-- 40.982
5.86 --undefined-- 41.205
5.87 --undefined-- 41.968
5.88 --undefined-- 41.871
5.89 --undefined-- 39.586
5.90 --undefined-- 37.659
5.91 --undefined-- 40.998
5.92 --undefined-- 43.125
5.93 --undefined-- 43.316
5.94 --undefined-- 42.709
5.95 --undefined-- 42.880
5.96 --undefined-- 44.318
5.97 --undefined-- 45.342
5.98 --undefined-- 44.902
5.99 --undefined-- 43.011
6.00 --undefined-- 41.392
6.01 --undefined-- 41.564
6.02 --undefined-- 42.552
6.03 --undefined-- 46.656
6.04 --undefined-- 55.495
6.05 --undefined-- 63.637
6.06 --undefined-- --undefined--
6.07 --undefined-- --undefined--
6.08 --undefined-- --undefined--
6.09 --undefined-- --undefined--
