Time Pitch Intensity
0.01 --undefined-- --undefined--
0.02 123.933 --undefined--
0.03 128.911 --undefined--
0.04 130.457 --undefined--
0.05 130.549 56.612
0.06 129.912 56.700
0.07 128.786 56.618
0.08 127.048 56.397
0.09 126.235 56.312
0.10 124.393 56.444
0.11 122.804 56.647
0.12 121.166 56.572
0.13 118.110 56.185
0.14 113.488 55.973
0.15 113.275 56.775
0.16 109.937 58.589
0.17 106.347 59.723
0.18 103.908 59.785
0.19 103.888 59.672
0.20 104.216 59.721
0.21 104.398 59.468
0.22 105.856 58.828
0.23 106.663 57.902
0.24 107.173 56.574
0.25 110.472 55.720
0.26 115.996 56.321
0.27 119.302 57.180
0.28 120.152 57.369
0.29 119.595 56.611
0.30 117.507 54.739
0.31 114.333 51.535
0.32 --undefined-- 47.752
0.33 --undefined-- 50.172
0.34 --undefined-- 54.101
0.35 --undefined-- 57.027
0.36 --undefined-- 58.523
0.37 --undefined-- 58.990
0.38 --undefined-- 63.709
0.39 128.025 68.122
0.40 127.070 69.761
0.41 122.532 69.430
0.42 119.298 67.989
0.43 117.956 65.725
0.44 118.434 62.867
0.45 120.428 60.921
0.46 122.535 60.619
0.47 123.094 60.706
0.48 123.274 60.558
0.49 123.398 60.270
0.50 123.265 60.056
0.51 122.926 60.137
0.52 121.866 60.299
0.53 120.263 60.351
0.54 117.619 60.601
0.55 115.855 60.840
0.56 --undefined-- 60.310
0.57 --undefined-- 59.663
0.58 --undefined-- 60.650
0.59 --undefined-- 62.190
0.60 --undefined-- 63.496
0.61 --undefined-- 63.902
0.62 --undefined-- 62.593
0.63 --undefined-- 61.481
0.64 --undefined-- 62.255
0.65 --undefined-- 61.923
0.66 --undefined-- 61.802
0.67 --undefined-- 65.639
0.68 119.780 68.972
0.69 118.687 70.452
0.70 120.005 70.789
0.71 121.136 70.774
0.72 120.451 70.482
0.73 119.329 69.399
0.74 119.093 67.666
0.75 119.355 66.287
0.76 119.987 65.573
0.77 119.655 65.011
0.78 118.588 64.143
0.79 117.308 62.891
0.80 116.517 61.468
0.81 116.169 59.552
0.82 --undefined-- 55.972
0.83 --undefined-- 50.097
0.84 --undefined-- 44.910
0.85 --undefined-- 42.516
0.86 --undefined-- 40.779
0.87 --undefined-- 42.861
0.88 --undefined-- 48.299
0.89 --undefined-- 51.082
0.90 --undefined-- 52.673
0.91 --undefined-- 55.284
0.92 --undefined-- 57.635
0.93 --undefined-- 58.713
0.94 --undefined-- 58.095
0.95 --undefined-- 56.541
0.96 --undefined-- 55.752
0.97 --undefined-- 54.874
0.98 --undefined-- 52.804
0.99 --undefined-- 50.211
1.00 --undefined-- 48.054
1.01 --undefined-- 45.166
1.02 --undefined-- 41.694
1.03 --undefined-- 39.809
1.04 --undefined-- 39.259
1.05 --undefined-- 39.272
1.06 --undefined-- 42.987
1.07 --undefined-- 51.784
1.08 --undefined-- 57.194
1.09 --undefined-- 58.581
1.10 --undefined-- 59.485
1.11 115.182 63.524
1.12 114.041 67.040
1.13 109.698 68.847
1.14 --undefined-- 68.720
1.15 --undefined-- 66.913
1.16 --undefined-- 63.718
1.17 --undefined-- 59.729
1.18 --undefined-- 58.497
1.19 --undefined-- 59.746
1.20 --undefined-- 60.765
1.21 --undefined-- 60.853
1.22 --undefined-- 59.983
1.23 --undefined-- 58.478
1.24 --undefined-- 57.022
1.25 --undefined-- 56.804
1.26 --undefined-- 57.787
1.27 --undefined-- 62.168
1.28 --undefined-- 67.483
1.29 --undefined-- 70.050
1.30 119.051 70.004
1.31 116.578 68.765
1.32 113.986 67.770
1.33 109.949 67.320
1.34 107.889 67.188
1.35 107.675 67.062
1.36 108.075 66.775
1.37 109.126 66.673
1.38 111.692 66.786
1.39 114.165 66.722
1.40 115.618 66.464
1.41 116.626 65.884
1.42 117.233 64.518
1.43 115.719 62.222
1.44 113.669 59.419
1.45 113.223 56.854
1.46 113.508 55.315
1.47 113.960 54.784
1.48 113.507 54.605
1.49 112.597 54.413
1.50 111.919 54.019
1.51 111.080 53.527
1.52 110.729 53.272
1.53 109.848 53.452
1.54 109.120 53.769
1.55 108.147 53.902
1.56 106.647 53.895
1.57 106.633 53.705
1.58 103.376 52.939
1.59 103.116 51.606
1.60 100.950 50.064
1.61 98.670 48.425
1.62 --undefined-- 46.826
1.63 --undefined-- 45.399
1.64 --undefined-- 44.010
1.65 --undefined-- 42.940
1.66 --undefined-- 43.173
1.67 --undefined-- 43.723
1.68 --undefined-- 44.802
1.69 --undefined-- 46.627
1.70 --undefined-- 48.153
1.71 --undefined-- 49.064
1.72 --undefined-- 50.083
1.73 --undefined-- 51.936
1.74 --undefined-- 53.206
1.75 --undefined-- 53.341
1.76 --undefined-- 53.867
1.77 97.147 56.565
1.78 97.560 59.889
1.79 97.016 62.148
1.80 96.298 62.994
1.81 96.335 62.410
1.82 96.311 60.491
1.83 93.180 57.983
1.84 96.642 58.196
1.85 103.388 61.901
1.86 104.342 65.075
1.87 104.603 66.930
1.88 104.568 67.707
1.89 105.910 67.450
1.90 106.166 66.440
1.91 107.205 65.502
1.92 106.877 65.062
1.93 106.780 64.884
1.94 104.069 64.566
1.95 103.233 63.720
1.96 --undefined-- 62.099
1.97 --undefined-- 59.382
1.98 --undefined-- 56.877
1.99 --undefined-- 56.858
2.00 --undefined-- 57.795
2.01 --undefined-- 59.033
2.02 99.333 60.695
2.03 98.846 62.050
2.04 94.148 63.179
2.05 93.407 64.423
2.06 84.970 65.177
2.07 87.226 64.845
2.08 85.682 63.569
2.09 84.722 61.841
2.10 84.590 59.361
2.11 --undefined-- 54.998
2.12 --undefined-- 48.107
2.13 --undefined-- 41.930
2.14 --undefined-- 39.817
2.15 --undefined-- 38.501
2.16 --undefined-- 38.345
2.17 --undefined-- 42.114
2.18 --undefined-- 50.145
2.19 --undefined-- 55.441
2.20 --undefined-- 59.604
2.21 --undefined-- 63.804
2.22 --undefined-- 65.976
2.23 --undefined-- 66.273
2.24 83.086 65.629
2.25 82.918 64.901
2.26 82.827 64.206
2.27 85.228 62.998
2.28 84.475 61.706
2.29 86.139 60.993
2.30 88.212 60.282
2.31 90.470 59.261
2.32 93.535 58.198
2.33 94.304 57.502
2.34 97.188 57.239
2.35 98.629 56.923
2.36 101.040 56.448
2.37 103.408 55.996
2.38 103.558 55.598
2.39 107.041 55.381
2.40 107.809 55.218
2.41 108.071 54.843
2.42 108.342 54.142
2.43 109.114 53.136
2.44 109.945 52.057
2.45 110.062 50.946
2.46 109.891 49.910
2.47 108.288 49.128
2.48 --undefined-- 48.369
2.49 --undefined-- 47.690
2.50 --undefined-- 47.265
2.51 --undefined-- 46.650
2.52 --undefined-- 45.985
2.53 --undefined-- 45.790
2.54 --undefined-- 45.592
2.55 --undefined-- 45.787
2.56 --undefined-- 46.395
2.57 --undefined-- 46.872
2.58 --undefined-- 47.804
2.59 --undefined-- 48.843
2.60 --undefined-- 48.371
2.61 --undefined-- 46.763
2.62 --undefined-- 45.891
2.63 --undefined-- 46.336
2.64 --undefined-- 47.171
2.65 --undefined-- 47.908
2.66 --undefined-- 48.571
2.67 --undefined-- 48.555
2.68 --undefined-- 48.329
2.69 --undefined-- 48.860
2.70 --undefined-- 49.254
2.71 --undefined-- 48.920
2.72 --undefined-- 48.377
2.73 --undefined-- 48.333
2.74 --undefined-- 49.083
2.75 --undefined-- 50.089
2.76 --undefined-- 50.363
2.77 --undefined-- 50.133
2.78 --undefined-- 51.045
2.79 95.547 53.447
2.80 97.400 56.088
2.81 97.813 57.719
2.82 94.704 57.890
2.83 94.248 57.202
2.84 94.439 56.731
2.85 94.439 56.984
2.86 94.526 57.965
2.87 92.592 59.385
2.88 91.211 60.836
2.89 90.556 62.524
2.90 90.684 64.600
2.91 90.884 66.525
2.92 90.075 67.833
2.93 90.374 68.374
2.94 88.324 68.120
2.95 88.488 67.657
2.96 86.955 67.487
2.97 84.765 67.103
2.98 82.782 66.531
2.99 82.203 66.127
3.00 83.440 65.625
3.01 83.867 64.662
3.02 83.242 63.560
3.03 83.656 62.577
3.04 87.319 61.267
3.05 91.349 59.013
3.06 92.334 56.568
3.07 94.988 55.470
3.08 95.596 55.055
3.09 95.849 54.601
3.10 97.670 54.452
3.11 99.731 55.170
3.12 99.966 56.030
3.13 102.215 56.605
3.14 102.835 58.206
3.15 104.440 61.056
3.16 104.537 63.038
3.17 103.709 63.801
3.18 103.041 64.177
3.19 102.298 64.360
3.20 98.525 63.522
3.21 --undefined-- 61.691
3.22 --undefined-- 59.660
3.23 --undefined-- 58.196
3.24 --undefined-- 58.346
3.25 94.078 59.419
3.26 94.713 60.620
3.27 93.573 62.003
3.28 88.241 63.152
3.29 82.106 63.548
3.30 80.998 62.873
3.31 81.110 61.330
3.32 83.482 58.984
3.33 --undefined-- 55.310
3.34 --undefined-- 49.711
3.35 --undefined-- 42.793
3.36 --undefined-- 38.680
3.37 --undefined-- 40.687
3.38 --undefined-- 49.858
3.39 --undefined-- 57.931
3.40 --undefined-- 62.711
3.41 --undefined-- 64.728
3.42 --undefined-- 64.759
3.43 --undefined-- 63.382
3.44 --undefined-- 62.221
3.45 --undefined-- 62.867
3.46 --undefined-- 63.111
3.47 --undefined-- 61.591
3.48 --undefined-- 62.087
3.49 105.134 65.719
3.50 105.113 67.639
3.51 104.708 68.152
3.52 104.234 68.131
3.53 100.118 67.792
3.54 98.121 67.448
3.55 95.863 67.204
3.56 96.378 67.010
3.57 96.664 66.910
3.58 98.056 67.063
3.59 98.796 67.089
3.60 98.942 66.667
3.61 98.471 65.893
3.62 98.541 64.729
3.63 97.945 63.357
3.64 96.931 62.357
3.65 --undefined-- 61.390
3.66 --undefined-- 59.202
3.67 --undefined-- 54.896
3.68 --undefined-- 48.636
3.69 --undefined-- 43.640
3.70 --undefined-- 43.314
3.71 --undefined-- 47.846
3.72 --undefined-- 52.423
3.73 --undefined-- 54.753
3.74 --undefined-- 57.575
3.75 --undefined-- 61.862
3.76 78.586 64.733
3.77 83.500 65.890
3.78 --undefined-- 65.639
3.79 77.845 64.976
3.80 77.982 65.201
3.81 76.076 65.853
3.82 76.581 66.361
3.83 92.410 66.712
3.84 82.488 66.805
3.85 86.006 66.382
3.86 89.741 64.964
3.87 --undefined-- 62.665
3.88 --undefined-- 59.584
3.89 --undefined-- 54.122
3.90 --undefined-- 45.346
3.91 --undefined-- 39.240
3.92 --undefined-- 38.015
3.93 --undefined-- 37.795
3.94 --undefined-- 38.551
3.95 --undefined-- 40.361
3.96 --undefined-- 43.111
3.97 --undefined-- 45.436
3.98 --undefined-- 46.982
3.99 --undefined-- 47.766
4.00 --undefined-- 47.586
4.01 --undefined-- 47.011
4.02 --undefined-- 46.829
4.03 --undefined-- 47.010
4.04 --undefined-- 47.216
4.05 --undefined-- 47.263
4.06 --undefined-- 46.938
4.07 --undefined-- 46.489
4.08 --undefined-- 46.422
4.09 --undefined-- 46.900
4.10 --undefined-- 47.419
4.11 --undefined-- 47.477
4.12 --undefined-- 47.225
4.13 --undefined-- 47.231
4.14 --undefined-- 47.613
4.15 --undefined-- 47.600
4.16 --undefined-- 46.762
4.17 --undefined-- 46.345
4.18 --undefined-- 46.663
4.19 --undefined-- 46.384
4.20 --undefined-- 45.516
4.21 --undefined-- 45.030
4.22 --undefined-- 44.158
4.23 --undefined-- 43.141
4.24 --undefined-- 42.768
4.25 --undefined-- 42.270
4.26 --undefined-- 42.048
4.27 --undefined-- 42.062
4.28 --undefined-- 41.227
4.29 --undefined-- 39.799
4.30 --undefined-- 38.742
4.31 --undefined-- 38.432
4.32 --undefined-- 38.789
4.33 --undefined-- 40.311
4.34 --undefined-- 46.293
4.35 --undefined-- 51.107
4.36 --undefined-- 52.560
4.37 --undefined-- 54.462
4.38 --undefined-- 60.711
4.39 --undefined-- 65.878
4.40 --undefined-- 67.544
4.41 --undefined-- 65.716
4.42 --undefined-- 60.702
4.43 113.308 56.878
4.44 126.266 59.649
4.45 127.045 62.453
4.46 132.185 64.881
4.47 133.481 67.701
4.48 133.018 69.866
4.49 132.178 70.747
4.50 132.552 70.886
4.51 131.193 70.918
4.52 129.294 70.892
4.53 127.130 70.758
4.54 124.612 70.491
4.55 121.212 69.720
4.56 116.878 67.638
4.57 --undefined-- 63.790
4.58 101.660 59.038
4.59 96.961 56.223
4.60 92.640 55.168
4.61 89.388 54.615
4.62 88.967 54.031
4.63 90.905 53.793
4.64 91.925 53.887
4.65 92.862 53.900
4.66 93.940 54.299
4.67 93.952 54.712
4.68 96.176 55.172
4.69 97.118 56.243
4.70 97.215 57.898
4.71 96.544 59.663
4.72 96.022 62.820
4.73 104.491 67.080
4.74 103.827 69.491
4.75 103.019 69.644
4.76 104.031 69.202
4.77 105.358 69.562
4.78 105.976 70.057
4.79 106.335 70.318
4.80 106.604 70.323
4.81 105.948 70.303
4.82 103.287 70.233
4.83 99.295 69.392
4.84 99.313 67.972
4.85 104.964 68.591
4.86 105.701 70.739
4.87 105.922 72.380
4.88 106.462 73.136
4.89 105.263 72.944
4.90 104.699 72.441
4.91 103.907 72.158
4.92 103.614 71.719
4.93 103.742 70.428
4.94 --undefined-- 67.482
4.95 --undefined-- 62.252
4.96 109.275 56.454
4.97 109.539 55.221
4.98 109.887 55.650
4.99 109.947 56.020
5.00 109.817 56.512
5.01 109.731 59.430
5.02 --undefined-- 64.617
5.03 114.701 68.626
5.04 118.181 70.694
5.05 120.520 71.077
5.06 122.600 70.736
5.07 124.508 70.918
5.08 124.591 71.515
5.09 123.605 71.701
5.10 122.874 71.354
5.11 120.413 70.472
5.12 116.637 68.989
5.13 109.874 67.114
5.14 104.185 65.274
5.15 97.475 63.555
5.16 92.739 61.077
5.17 87.018 57.439
5.18 87.220 53.177
5.19 89.670 51.126
5.20 93.329 52.775
5.21 96.647 55.742
5.22 100.606 58.509
5.23 105.227 61.296
5.24 111.236 --undefined--
5.25 110.142 --undefined--
5.26 --undefined-- --undefined--
5.27 --undefined-- --undefined--
