Time Pitch Intensity
0.01 --undefined-- --undefined--
0.02 93.491 --undefined--
0.03 93.942 --undefined--
0.04 94.163 --undefined--
0.05 94.008 53.192
0.06 93.812 51.910
0.07 93.942 50.906
0.08 --undefined-- 49.006
0.09 --undefined-- 55.862
0.10 --undefined-- 66.553
0.11 --undefined-- 71.822
0.12 --undefined-- 72.399
0.13 --undefined-- 68.696
0.14 --undefined-- 63.402
0.15 --undefined-- 62.113
0.16 --undefined-- 61.157
0.17 --undefined-- 61.174
0.18 --undefined-- 63.192
0.19 --undefined-- 63.698
0.20 --undefined-- 61.355
0.21 --undefined-- 56.014
0.22 --undefined-- 48.998
0.23 --undefined-- 42.629
0.24 --undefined-- 39.017
0.25 --undefined-- 48.830
0.26 --undefined-- 56.763
0.27 --undefined-- 59.692
0.28 --undefined-- 58.480
0.29 --undefined-- 57.995
0.30 --undefined-- 61.486
0.31 93.534 63.236
0.32 89.421 63.240
0.33 86.873 62.534
0.34 84.641 61.710
0.35 84.789 61.231
0.36 83.469 61.363
0.37 81.132 62.143
0.38 80.106 63.109
0.39 79.222 63.580
0.40 79.191 62.900
0.41 76.364 60.224
0.42 --undefined-- 55.367
0.43 --undefined-- 49.018
0.44 --undefined-- 45.418
0.45 --undefined-- 47.114
0.46 --undefined-- 48.622
0.47 --undefined-- 49.066
0.48 --undefined-- 48.792
0.49 --undefined-- 48.562
0.50 --undefined-- 49.361
0.51 --undefined-- 50.422
0.52 --undefined-- 50.351
0.53 --undefined-- 49.841
0.54 --undefined-- 51.578
0.55 --undefined-- 54.680
0.56 --undefined-- 56.486
0.57 --undefined-- 57.248
0.58 --undefined-- 57.937
0.59 --undefined-- 58.628
0.60 --undefined-- 59.419
0.61 --undefined-- 60.313
0.62 --undefined-- 61.367
0.63 --undefined-- 64.394
0.64 130.758 67.689
0.65 124.388 68.900
0.66 117.502 67.400
0.67 --undefined-- 62.824
0.68 --undefined-- 55.427
0.69 --undefined-- 46.492
0.70 --undefined-- 38.536
0.71 --undefined-- 38.980
0.72 --undefined-- 45.019
0.73 --undefined-- 49.593
0.74 --undefined-- 54.568
0.75 --undefined-- 61.451
0.76 --undefined-- 65.869
0.77 107.596 67.006
0.78 108.410 66.973
0.79 111.234 67.998
0.80 114.968 68.821
0.81 116.547 68.761
0.82 117.458 67.883
0.83 117.111 65.813
0.84 --undefined-- 62.008
0.85 --undefined-- 57.266
0.86 --undefined-- 53.546
0.87 --undefined-- 50.715
0.88 --undefined-- 46.995
0.89 --undefined-- 41.727
0.90 --undefined-- 36.780
0.91 --undefined-- 34.916
0.92 --undefined-- 36.061
0.93 --undefined-- 37.823
0.94 --undefined-- 39.249
0.95 --undefined-- 41.303
0.96 --undefined-- 43.954
0.97 --undefined-- 46.247
0.98 --undefined-- 47.722
0.99 --undefined-- 48.415
1.00 --undefined-- 48.685
1.01 --undefined-- 48.539
1.02 --undefined-- 48.412
1.03 --undefined-- 48.967
1.04 --undefined-- 49.617
1.05 --undefined-- 49.578
1.06 --undefined-- 48.887
1.07 --undefined-- 48.537
1.08 --undefined-- 49.148
1.09 --undefined-- 50.174
1.10 --undefined-- 50.379
1.11 --undefined-- 49.425
1.12 --undefined-- 48.515
1.13 --undefined-- 48.116
1.14 --undefined-- 47.807
1.15 --undefined-- 47.537
1.16 --undefined-- 46.415
1.17 --undefined-- 44.676
1.18 --undefined-- 43.051
1.19 --undefined-- 41.365
1.20 --undefined-- 39.778
1.21 --undefined-- 39.773
1.22 --undefined-- 43.827
1.23 --undefined-- 47.781
1.24 --undefined-- 49.155
1.25 --undefined-- 48.024
1.26 --undefined-- 45.768
1.27 --undefined-- 43.159
1.28 --undefined-- 39.208
1.29 --undefined-- 35.170
1.30 --undefined-- 44.070
1.31 --undefined-- 54.940
1.32 --undefined-- 60.331
1.33 --undefined-- 60.990
1.34 --undefined-- 57.306
1.35 --undefined-- 52.740
1.36 --undefined-- 54.850
1.37 --undefined-- 56.110
1.38 --undefined-- 54.783
1.39 94.878 53.146
1.40 95.444 53.274
1.41 97.843 53.918
1.42 98.411 54.333
1.43 99.542 54.258
1.44 99.350 53.811
1.45 99.997 53.263
1.46 100.402 52.916
1.47 100.872 53.448
1.48 101.145 54.060
1.49 --undefined-- 53.330
1.50 --undefined-- 52.032
1.51 --undefined-- 51.619
1.52 --undefined-- 53.392
1.53 --undefined-- 58.494
1.54 --undefined-- 62.592
1.55 --undefined-- 64.684
1.56 --undefined-- 65.665
1.57 86.710 66.561
1.58 88.794 67.497
1.59 88.488 68.015
1.60 95.962 68.503
1.61 108.594 68.907
1.62 119.067 69.103
1.63 123.523 68.728
1.64 --undefined-- 66.828
1.65 --undefined-- 63.067
1.66 --undefined-- 57.609
1.67 --undefined-- 51.159
1.68 --undefined-- 58.035
1.69 --undefined-- 65.169
1.70 --undefined-- 68.191
1.71 --undefined-- 67.406
1.72 --undefined-- 63.699
1.73 --undefined-- 63.340
1.74 --undefined-- 66.669
1.75 125.442 69.310
1.76 122.911 70.974
1.77 121.460 71.454
1.78 116.465 70.690
1.79 114.992 68.616
1.80 108.099 64.869
1.81 --undefined-- 58.993
1.82 --undefined-- 55.862
1.83 --undefined-- 64.145
1.84 --undefined-- 69.130
1.85 --undefined-- 71.372
1.86 --undefined-- 74.265
1.87 110.891 77.734
1.88 99.843 79.476
1.89 99.195 79.556
1.90 98.095 78.344
1.91 98.409 76.390
1.92 105.531 74.402
1.93 110.058 71.668
1.94 112.264 67.155
1.95 114.889 61.078
1.96 124.807 56.804
1.97 132.695 56.394
1.98 137.540 57.067
1.99 139.524 59.653
2.00 140.786 63.649
2.01 138.957 65.961
2.02 137.193 65.915
2.03 134.688 63.969
2.04 131.279 60.709
2.05 130.521 57.618
2.06 129.587 56.608
2.07 131.686 57.546
2.08 136.930 61.952
2.09 140.250 67.535
2.10 139.305 71.593
2.11 138.655 74.272
2.12 136.150 76.252
2.13 133.702 77.717
2.14 131.506 78.448
2.15 128.888 78.385
2.16 127.909 77.693
2.17 126.615 76.740
2.18 126.033 76.045
2.19 126.635 75.944
2.20 126.940 75.805
2.21 128.585 75.188
2.22 130.114 74.194
2.23 131.086 72.631
2.24 130.755 69.852
2.25 131.037 64.967
2.26 133.370 59.045
2.27 132.977 57.445
2.28 128.829 57.848
2.29 125.283 58.074
2.30 121.295 58.228
2.31 --undefined-- 57.181
2.32 --undefined-- 54.532
2.33 --undefined-- 55.370
2.34 --undefined-- 60.389
2.35 --undefined-- 65.478
2.36 104.620 69.883
2.37 101.962 72.980
2.38 96.533 74.428
2.39 96.336 74.512
2.40 96.550 73.814
2.41 97.243 72.886
2.42 99.220 72.052
2.43 102.487 70.595
2.44 --undefined-- 67.518
2.45 --undefined-- 62.539
2.46 --undefined-- 56.294
2.47 --undefined-- 51.051
2.48 --undefined-- 52.681
2.49 --undefined-- 55.375
2.50 --undefined-- 56.623
2.51 --undefined-- 57.240
2.52 --undefined-- 57.617
2.53 --undefined-- 57.869
2.54 --undefined-- 57.652
2.55 --undefined-- 56.320
2.56 --undefined-- 59.174
2.57 --undefined-- 65.591
2.58 --undefined-- 69.230
2.59 --undefined-- 70.370
2.60 --undefined-- 69.983
2.61 --undefined-- 68.849
2.62 --undefined-- 66.882
2.63 --undefined-- 64.043
2.64 --undefined-- 61.631
2.65 --undefined-- 59.607
2.66 --undefined-- 57.148
2.67 76.223 54.755
2.68 77.483 52.996
2.69 79.982 52.230
2.70 78.987 51.908
2.71 78.856 51.875
2.72 78.548 53.199
2.73 78.472 56.897
2.74 78.967 61.177
2.75 80.193 64.455
2.76 80.726 66.351
2.77 --undefined-- 66.861
2.78 --undefined-- 66.222
2.79 --undefined-- 64.446
2.80 --undefined-- 61.070
2.81 --undefined-- 55.476
2.82 --undefined-- 54.598
2.83 --undefined-- 58.145
2.84 --undefined-- 59.895
2.85 --undefined-- 61.894
2.86 84.351 63.338
2.87 80.521 63.913
2.88 78.081 63.817
2.89 77.828 63.083
2.90 77.254 62.199
2.91 76.136 61.776
2.92 --undefined-- 61.941
2.93 --undefined-- 61.644
2.94 --undefined-- 60.039
2.95 --undefined-- 57.348
2.96 --undefined-- 53.762
2.97 --undefined-- 49.888
2.98 --undefined-- 48.262
2.99 --undefined-- 49.526
3.00 --undefined-- 52.162
3.01 --undefined-- 54.672
3.02 --undefined-- 56.135
3.03 --undefined-- 57.129
3.04 --undefined-- 57.666
3.05 --undefined-- 57.471
3.06 --undefined-- 57.585
3.07 --undefined-- 57.458
3.08 --undefined-- 55.367
3.09 --undefined-- 51.597
3.10 --undefined-- 47.342
3.11 --undefined-- 43.950
3.12 --undefined-- 40.136
3.13 --undefined-- 36.393
3.14 --undefined-- 38.146
3.15 --undefined-- 43.101
3.16 --undefined-- 45.529
3.17 --undefined-- 44.251
3.18 --undefined-- 41.277
3.19 --undefined-- 40.874
3.20 --undefined-- 41.426
3.21 --undefined-- 41.666
3.22 --undefined-- 42.264
3.23 --undefined-- 43.361
3.24 --undefined-- 44.410
3.25 --undefined-- 44.712
3.26 --undefined-- 44.366
3.27 --undefined-- 44.004
3.28 --undefined-- 43.615
3.29 --undefined-- 43.387
3.30 --undefined-- 45.179
3.31 --undefined-- 50.265
3.32 --undefined-- 53.531
3.33 --undefined-- 53.852
3.34 --undefined-- 52.271
3.35 --undefined-- 50.163
3.36 --undefined-- 47.929
3.37 --undefined-- 45.463
3.38 --undefined-- 42.998
3.39 --undefined-- 41.234
3.40 --undefined-- 40.088
3.41 --undefined-- 37.826
3.42 --undefined-- 35.307
3.43 --undefined-- 34.767
3.44 --undefined-- 34.988
3.45 --undefined-- 34.526
3.46 --undefined-- 33.885
3.47 --undefined-- 40.599
3.48 --undefined-- 49.301
3.49 --undefined-- 53.819
3.50 --undefined-- 54.629
3.51 --undefined-- 53.392
3.52 --undefined-- 58.050
3.53 --undefined-- 63.888
3.54 93.323 66.821
3.55 95.903 67.704
3.56 --undefined-- 67.019
3.57 84.598 64.967
3.58 82.099 62.510
3.59 81.423 60.087
3.60 81.077 58.118
3.61 80.664 57.681
3.62 80.262 58.366
3.63 80.849 59.920
3.64 81.266 61.671
3.65 81.038 63.110
3.66 81.614 64.705
3.67 80.449 66.489
3.68 79.119 67.511
3.69 77.567 67.393
3.70 77.766 67.110
3.71 76.067 67.460
3.72 76.217 67.778
3.73 76.229 67.096
3.74 75.153 65.683
3.75 86.006 64.414
3.76 --undefined-- 63.187
3.77 --undefined-- 60.335
3.78 --undefined-- 56.082
3.79 --undefined-- 54.991
3.80 --undefined-- 56.040
3.81 --undefined-- 58.067
3.82 --undefined-- 60.380
3.83 --undefined-- 62.677
3.84 --undefined-- 64.119
3.85 --undefined-- 64.569
3.86 --undefined-- 64.650
3.87 --undefined-- 64.893
3.88 --undefined-- 65.846
3.89 88.045 66.993
3.90 87.653 67.492
3.91 85.910 67.622
3.92 83.190 67.812
3.93 81.405 67.846
3.94 81.251 67.517
3.95 80.876 66.893
3.96 80.210 65.277
3.97 75.575 62.398
3.98 79.055 59.808
3.99 82.495 60.752
4.00 81.231 64.280
4.01 81.199 67.489
4.02 82.814 68.635
4.03 80.482 67.894
4.04 80.429 66.629
4.05 80.012 65.913
4.06 79.730 65.800
4.07 79.678 65.965
4.08 --undefined-- 65.055
4.09 --undefined-- 61.578
4.10 --undefined-- 56.045
4.11 --undefined-- 53.149
4.12 --undefined-- 53.178
4.13 --undefined-- 52.117
4.14 --undefined-- 49.616
4.15 --undefined-- 48.618
4.16 --undefined-- 49.710
4.17 --undefined-- 50.995
4.18 --undefined-- 52.754
4.19 --undefined-- 53.846
4.20 --undefined-- 53.544
4.21 --undefined-- 53.684
4.22 --undefined-- 54.807
4.23 --undefined-- 59.003
4.24 --undefined-- 63.498
4.25 93.207 65.768
4.26 89.263 66.523
4.27 84.089 67.127
4.28 82.562 67.795
4.29 80.544 67.467
4.30 79.440 65.826
4.31 80.039 63.798
4.32 81.234 62.226
4.33 81.129 60.532
4.34 80.648 59.038
4.35 75.008 58.488
4.36 --undefined-- 57.933
4.37 --undefined-- 56.673
4.38 --undefined-- 56.148
4.39 --undefined-- 56.677
4.40 --undefined-- 58.039
4.41 --undefined-- 58.827
4.42 --undefined-- 57.992
4.43 80.675 58.125
4.44 82.637 60.007
4.45 81.708 61.611
4.46 82.149 62.610
4.47 83.019 62.870
4.48 84.909 62.175
4.49 90.199 61.170
4.50 94.520 61.038
4.51 98.461 61.347
4.52 101.482 61.431
4.53 100.650 61.531
4.54 98.133 62.194
4.55 95.115 63.454
4.56 90.343 64.778
4.57 85.731 66.024
4.58 --undefined-- 66.098
4.59 --undefined-- 64.178
4.60 --undefined-- 60.995
4.61 --undefined-- 57.547
4.62 --undefined-- 53.170
4.63 --undefined-- 49.509
4.64 --undefined-- 48.273
4.65 --undefined-- 48.057
4.66 --undefined-- 48.141
4.67 --undefined-- 47.896
4.68 --undefined-- 47.138
4.69 --undefined-- 46.122
4.70 --undefined-- 44.812
4.71 --undefined-- 43.067
4.72 --undefined-- 40.868
4.73 --undefined-- 38.580
4.74 --undefined-- 47.264
4.75 --undefined-- 55.795
4.76 --undefined-- 59.384
4.77 --undefined-- 58.927
4.78 --undefined-- 56.597
4.79 --undefined-- 55.578
4.80 --undefined-- 55.242
4.81 --undefined-- 56.237
4.82 --undefined-- 58.261
4.83 --undefined-- 59.001
4.84 --undefined-- 57.576
4.85 --undefined-- 54.246
4.86 --undefined-- 51.015
4.87 --undefined-- 49.035
4.88 --undefined-- 47.655
4.89 --undefined-- 47.320
4.90 --undefined-- 46.808
4.91 --undefined-- 45.260
4.92 --undefined-- 44.521
4.93 --undefined-- 44.232
4.94 --undefined-- 42.554
4.95 --undefined-- 41.380
4.96 --undefined-- 46.983
4.97 --undefined-- 51.550
4.98 --undefined-- 52.155
4.99 --undefined-- 51.281
5.00 --undefined-- 53.817
5.01 --undefined-- 57.124
5.02 87.037 58.860
5.03 77.953 59.442
5.04 79.514 59.910
5.05 77.415 60.714
5.06 77.363 61.029
5.07 --undefined-- 60.171
5.08 --undefined-- 58.766
5.09 --undefined-- 57.615
5.10 --undefined-- 56.602
5.11 --undefined-- 55.013
5.12 --undefined-- 51.299
5.13 --undefined-- 45.221
5.14 --undefined-- 41.204
5.15 --undefined-- 43.788
5.16 --undefined-- 51.405
5.17 --undefined-- 58.292
5.18 --undefined-- 62.611
5.19 --undefined-- 64.250
5.20 --undefined-- 63.445
5.21 --undefined-- 60.142
5.22 --undefined-- 54.025
5.23 --undefined-- 47.510
5.24 --undefined-- 45.398
5.25 --undefined-- 44.912
5.26 --undefined-- 45.494
5.27 --undefined-- 45.583
5.28 --undefined-- 46.893
5.29 --undefined-- 51.208
5.30 --undefined-- --undefined--
5.31 --undefined-- --undefined--
5.32 --undefined-- --undefined--
5.33 --undefined-- --undefined--
