Time Pitch Intensity
0.01 --undefined-- --undefined--
0.02 77.168 --undefined--
0.03 --undefined-- --undefined--
0.04 --undefined-- --undefined--
0.05 --undefined-- 49.832
0.06 --undefined-- 43.584
0.07 --undefined-- 38.677
0.08 --undefined-- 38.545
0.09 --undefined-- 38.794
0.10 --undefined-- 45.126
0.11 --undefined-- 53.748
0.12 --undefined-- 58.050
0.13 --undefined-- 58.314
0.14 --undefined-- 57.699
0.15 --undefined-- 63.124
0.16 110.005 67.506
0.17 106.877 69.337
0.18 105.797 69.754
0.19 105.759 69.738
0.20 105.829 69.530
0.21 105.115 69.179
0.22 104.072 68.744
0.23 103.121 68.295
0.24 102.280 67.883
0.25 101.868 67.481
0.26 102.227 67.043
0.27 102.528 66.628
0.28 103.089 66.353
0.29 103.522 66.104
0.30 103.491 65.649
0.31 102.413 64.982
0.32 102.152 64.345
0.33 101.577 63.825
0.34 101.233 63.317
0.35 100.932 62.621
0.36 103.046 61.533
0.37 100.782 60.563
0.38 101.231 59.702
0.39 99.710 57.731
0.40 --undefined-- 53.876
0.41 --undefined-- 48.595
0.42 --undefined-- 54.171
0.43 --undefined-- 60.583
0.44 --undefined-- 62.760
0.45 --undefined-- 61.426
0.46 --undefined-- 61.683
0.47 --undefined-- 67.319
0.48 84.904 71.239
0.49 85.114 73.103
0.50 81.045 73.852
0.51 75.550 74.110
0.52 86.204 73.919
0.53 85.920 72.984
0.54 74.519 71.196
0.55 74.997 68.683
0.56 76.805 65.394
0.57 78.561 62.179
0.58 78.880 60.632
0.59 79.629 60.108
0.60 --undefined-- 59.480
0.61 --undefined-- 58.173
0.62 --undefined-- 58.711
0.63 --undefined-- 60.666
0.64 --undefined-- 61.334
0.65 --undefined-- 63.981
0.66 --undefined-- 67.610
0.67 --undefined-- 69.793
0.68 --undefined-- 70.969
0.69 --undefined-- 70.348
0.70 --undefined-- 66.728
0.71 --undefined-- 62.642
0.72 --undefined-- 65.478
0.73 83.979 68.141
0.74 81.680 69.395
0.75 79.061 70.002
0.76 79.106 70.628
0.77 77.451 71.185
0.78 --undefined-- 71.101
0.79 --undefined-- 70.465
0.80 --undefined-- 69.460
0.81 --undefined-- 68.298
0.82 75.698 68.122
0.83 74.459 68.668
0.84 --undefined-- 68.763
0.85 --undefined-- 68.108
0.86 --undefined-- 66.841
0.87 --undefined-- 65.441
0.88 --undefined-- 63.937
0.89 --undefined-- 61.730
0.90 --undefined-- 58.538
0.91 --undefined-- 54.499
0.92 --undefined-- 50.662
0.93 --undefined-- 48.481
0.94 --undefined-- 46.660
0.95 --undefined-- 44.255
0.96 --undefined-- 41.863
0.97 --undefined-- 41.506
0.98 --undefined-- 41.359
0.99 --undefined-- 39.696
1.00 --undefined-- 38.503
1.01 --undefined-- 38.175
1.02 --undefined-- 37.875
1.03 --undefined-- 37.616
1.04 --undefined-- 37.867
1.05 --undefined-- 38.230
1.06 --undefined-- 37.644
1.07 --undefined-- 36.621
1.08 --undefined-- 43.463
1.09 --undefined-- 58.246
1.10 --undefined-- 66.917
1.11 --undefined-- 70.313
1.12 --undefined-- 68.989
1.13 --undefined-- 62.758
1.14 --undefined-- 52.945
1.15 --undefined-- 54.766
1.16 89.029 58.732
1.17 88.234 62.031
1.18 84.120 64.223
1.19 83.866 65.272
1.20 83.946 65.504
1.21 84.000 65.184
1.22 83.697 64.154
1.23 --undefined-- 61.493
1.24 --undefined-- 57.246
1.25 --undefined-- 59.101
1.26 --undefined-- 62.333
1.27 84.650 64.042
1.28 81.183 64.281
1.29 80.523 63.203
1.30 80.096 62.050
1.31 79.292 60.966
1.32 78.356 59.533
1.33 77.735 58.096
1.34 77.707 56.617
1.35 75.389 54.885
1.36 75.442 54.556
1.37 --undefined-- 57.105
1.38 --undefined-- 61.567
1.39 --undefined-- 65.882
1.40 --undefined-- 68.769
1.41 --undefined-- 69.608
1.42 --undefined-- 68.978
1.43 --undefined-- 68.554
1.44 --undefined-- 68.522
1.45 --undefined-- 68.325
1.46 --undefined-- 67.734
1.47 --undefined-- 66.069
1.48 78.389 63.941
1.49 78.713 62.770
1.50 80.500 61.333
1.51 81.215 59.626
1.52 82.335 58.965
1.53 81.827 58.455
1.54 81.052 56.832
1.55 80.207 54.957
1.56 78.724 54.646
1.57 77.959 56.037
1.58 77.034 58.318
1.59 77.702 60.655
1.60 77.631 62.550
1.61 78.653 64.671
1.62 78.830 66.817
1.63 78.166 68.013
1.64 77.700 68.476
1.65 77.574 68.581
1.66 --undefined-- 67.931
1.67 --undefined-- 65.631
1.68 --undefined-- 60.518
1.69 --undefined-- 52.824
1.70 --undefined-- 56.899
1.71 --undefined-- 62.482
1.72 --undefined-- 65.354
1.73 --undefined-- 66.603
1.74 78.066 67.113
1.75 76.084 67.665
1.76 --undefined-- 67.776
1.77 --undefined-- 66.614
1.78 --undefined-- 63.799
1.79 --undefined-- 59.235
1.80 --undefined-- 52.566
1.81 --undefined-- 43.171
1.82 --undefined-- 36.975
1.83 --undefined-- 45.122
1.84 --undefined-- 57.852
1.85 --undefined-- 65.168
1.86 --undefined-- 68.022
1.87 --undefined-- 67.181
1.88 --undefined-- 64.887
1.89 --undefined-- 67.314
1.90 --undefined-- 70.421
1.91 --undefined-- 71.806
1.92 --undefined-- 72.237
1.93 --undefined-- 72.507
1.94 --undefined-- 72.705
1.95 74.831 72.654
1.96 74.939 72.190
1.97 74.852 71.393
1.98 76.846 70.405
1.99 --undefined-- 68.593
2.00 --undefined-- 65.594
2.01 --undefined-- 62.485
2.02 --undefined-- 59.757
2.03 89.989 57.175
2.04 92.054 55.663
2.05 92.093 53.725
2.06 91.598 51.201
2.07 90.435 49.911
2.08 86.736 49.517
2.09 84.341 49.768
2.10 83.902 50.110
2.11 --undefined-- 49.154
2.12 --undefined-- 48.638
2.13 --undefined-- 55.116
2.14 --undefined-- 61.580
2.15 --undefined-- 64.560
2.16 75.435 64.315
2.17 77.759 62.850
2.18 77.405 62.611
2.19 76.602 62.449
2.20 75.986 61.201
2.21 75.929 59.003
2.22 --undefined-- 55.888
2.23 --undefined-- 50.919
2.24 --undefined-- 43.933
2.25 --undefined-- 41.218
2.26 --undefined-- 45.614
2.27 --undefined-- 50.397
2.28 --undefined-- 52.435
2.29 --undefined-- 52.958
2.30 --undefined-- 56.857
2.31 --undefined-- 60.378
2.32 --undefined-- 62.040
2.33 --undefined-- 63.244
2.34 --undefined-- 64.112
2.35 --undefined-- 64.140
2.36 --undefined-- 63.178
2.37 --undefined-- 61.854
2.38 --undefined-- 60.968
2.39 --undefined-- 59.409
2.40 --undefined-- 56.933
2.41 --undefined-- 55.947
2.42 --undefined-- 56.082
2.43 --undefined-- 56.078
2.44 --undefined-- 56.314
2.45 --undefined-- 56.303
2.46 --undefined-- 54.894
2.47 --undefined-- 51.819
2.48 --undefined-- 47.439
2.49 --undefined-- 42.559
2.50 --undefined-- 47.440
2.51 --undefined-- 56.994
2.52 --undefined-- 62.491
2.53 --undefined-- 64.048
2.54 --undefined-- 61.727
2.55 --undefined-- 58.207
2.56 --undefined-- 63.286
2.57 --undefined-- 67.421
2.58 --undefined-- 68.667
2.59 --undefined-- 68.658
2.60 --undefined-- 68.504
2.61 --undefined-- 67.961
2.62 --undefined-- 66.837
2.63 --undefined-- 65.612
2.64 --undefined-- 64.728
2.65 --undefined-- 63.720
2.66 --undefined-- 62.535
2.67 --undefined-- 60.834
2.68 --undefined-- 57.569
2.69 --undefined-- 52.587
2.70 --undefined-- 46.850
2.71 --undefined-- 40.369
2.72 --undefined-- 36.074
2.73 --undefined-- 36.122
2.74 --undefined-- 37.719
2.75 --undefined-- 40.445
2.76 --undefined-- 41.885
2.77 --undefined-- 40.487
2.78 --undefined-- 38.815
2.79 --undefined-- 38.989
2.80 --undefined-- 37.534
2.81 --undefined-- 36.140
2.82 --undefined-- 36.687
2.83 --undefined-- 37.450
2.84 --undefined-- 37.931
2.85 --undefined-- 38.315
2.86 --undefined-- 38.907
2.87 --undefined-- 39.121
2.88 --undefined-- 38.585
2.89 --undefined-- 37.999
2.90 --undefined-- 38.154
2.91 --undefined-- 38.117
2.92 --undefined-- 37.230
2.93 --undefined-- 35.765
2.94 --undefined-- 35.645
2.95 --undefined-- 43.821
2.96 --undefined-- 52.153
2.97 --undefined-- 55.659
2.98 --undefined-- 54.526
2.99 --undefined-- 48.682
3.00 --undefined-- 39.897
3.01 --undefined-- 39.157
3.02 --undefined-- 41.240
3.03 --undefined-- 48.336
3.04 --undefined-- 52.926
3.05 --undefined-- 53.062
3.06 --undefined-- 50.668
3.07 --undefined-- 54.985
3.08 --undefined-- 59.403
3.09 --undefined-- 60.211
3.10 --undefined-- 58.095
3.11 99.022 55.941
3.12 99.008 55.986
3.13 100.966 56.416
3.14 101.594 56.671
3.15 104.040 57.031
3.16 102.774 58.946
3.17 102.938 61.617
3.18 102.194 63.338
3.19 101.390 64.257
3.20 100.497 64.732
3.21 99.840 65.096
3.22 99.189 65.840
3.23 98.804 66.371
3.24 97.890 66.129
3.25 96.632 65.499
3.26 95.958 64.878
3.27 95.993 64.594
3.28 94.911 64.710
3.29 93.850 64.669
3.30 92.140 64.216
3.31 90.995 63.348
3.32 89.010 61.982
3.33 86.987 59.946
3.34 85.291 57.262
3.35 84.511 54.595
3.36 83.752 53.647
3.37 83.450 54.826
3.38 82.098 57.141
3.39 81.200 60.101
3.40 80.630 62.648
3.41 80.325 64.382
3.42 81.600 65.441
3.43 80.784 66.208
3.44 81.225 66.528
3.45 --undefined-- 65.430
3.46 --undefined-- 61.889
3.47 --undefined-- 54.894
3.48 --undefined-- 45.983
3.49 --undefined-- 50.889
3.50 --undefined-- 56.910
3.51 --undefined-- 61.171
3.52 --undefined-- 63.961
3.53 79.305 64.734
3.54 79.050 64.749
3.55 77.373 65.529
3.56 77.643 66.324
3.57 75.748 66.006
3.58 75.009 64.854
3.59 --undefined-- 63.783
3.60 --undefined-- 62.688
3.61 --undefined-- 61.195
3.62 --undefined-- 59.300
3.63 --undefined-- 57.406
3.64 --undefined-- 56.397
3.65 --undefined-- 56.006
3.66 74.722 55.830
3.67 74.987 56.788
3.68 75.062 59.042
3.69 76.943 60.989
3.70 75.887 62.029
3.71 77.392 62.701
3.72 77.069 62.806
3.73 76.717 61.751
3.74 77.396 60.174
3.75 77.999 59.375
3.76 78.293 59.087
3.77 79.343 58.434
3.78 78.790 57.550
3.79 79.843 57.257
3.80 79.402 57.422
3.81 79.174 57.399
3.82 77.765 57.227
3.83 76.610 57.225
3.84 75.148 57.551
3.85 --undefined-- 57.362
3.86 --undefined-- 55.199
3.87 --undefined-- 50.852
3.88 --undefined-- 45.420
3.89 --undefined-- 39.071
3.90 --undefined-- 36.366
3.91 --undefined-- 37.703
3.92 --undefined-- 45.045
3.93 --undefined-- 53.669
3.94 --undefined-- 58.402
3.95 --undefined-- 59.776
3.96 --undefined-- 60.017
3.97 --undefined-- 61.533
3.98 --undefined-- 62.237
3.99 --undefined-- 63.923
4.00 --undefined-- 67.669
4.01 --undefined-- 68.808
4.02 --undefined-- 66.836
4.03 77.812 62.526
4.04 74.688 57.897
4.05 76.879 56.182
4.06 74.427 56.447
4.07 74.485 56.645
4.08 76.425 56.608
4.09 74.453 56.583
4.10 74.733 56.851
4.11 74.937 57.281
4.12 74.616 57.301
4.13 --undefined-- 56.853
4.14 --undefined-- 55.350
4.15 --undefined-- 53.081
4.16 --undefined-- 55.145
4.17 --undefined-- 58.622
4.18 --undefined-- 60.946
4.19 --undefined-- 61.435
4.20 --undefined-- 60.517
4.21 --undefined-- 59.781
4.22 --undefined-- 59.891
4.23 --undefined-- 59.979
4.24 --undefined-- 61.683
4.25 --undefined-- 67.896
4.26 105.201 72.511
4.27 105.192 74.314
4.28 96.556 73.764
4.29 95.588 71.017
4.30 --undefined-- 66.013
4.31 94.657 58.725
4.32 93.295 53.534
4.33 93.130 52.323
4.34 93.664 51.113
4.35 96.716 50.332
4.36 94.837 50.764
4.37 95.013 53.597
4.38 --undefined-- 57.111
4.39 91.522 58.258
4.40 91.462 56.875
4.41 86.314 53.928
4.42 --undefined-- 51.709
4.43 --undefined-- 56.785
4.44 --undefined-- 61.798
4.45 --undefined-- 64.348
4.46 --undefined-- 65.238
4.47 --undefined-- 64.568
4.48 --undefined-- 62.328
4.49 --undefined-- 57.978
4.50 --undefined-- 50.859
4.51 --undefined-- 45.821
4.52 --undefined-- 44.691
4.53 --undefined-- 44.706
4.54 --undefined-- 45.031
4.55 --undefined-- 44.909
4.56 --undefined-- 45.238
4.57 --undefined-- 46.185
4.58 --undefined-- 47.480
4.59 --undefined-- 48.042
4.60 --undefined-- 46.572
4.61 --undefined-- 42.937
4.62 --undefined-- 38.613
4.63 --undefined-- 36.670
4.64 --undefined-- 36.521
4.65 --undefined-- 37.281
4.66 --undefined-- 48.271
4.67 --undefined-- 56.451
4.68 --undefined-- 60.216
4.69 --undefined-- 61.121
4.70 --undefined-- 61.888
4.71 --undefined-- 62.405
4.72 --undefined-- 61.919
4.73 --undefined-- 62.982
4.74 88.981 65.580
4.75 88.828 66.564
4.76 84.249 65.162
4.77 77.620 61.411
4.78 77.496 55.872
4.79 --undefined-- 50.580
4.80 --undefined-- 48.969
4.81 --undefined-- 48.723
4.82 --undefined-- 48.061
4.83 --undefined-- 47.550
4.84 --undefined-- 47.240
4.85 --undefined-- 46.992
4.86 --undefined-- 46.335
4.87 --undefined-- 44.306
4.88 --undefined-- 42.638
4.89 --undefined-- 51.263
4.90 --undefined-- 58.128
4.91 --undefined-- 60.698
4.92 --undefined-- 59.354
4.93 --undefined-- 54.772
4.94 --undefined-- 55.607
4.95 --undefined-- 60.658
4.96 --undefined-- 63.516
4.97 --undefined-- 64.387
4.98 --undefined-- 63.144
4.99 --undefined-- 59.649
5.00 --undefined-- 53.915
5.01 --undefined-- 50.268
5.02 --undefined-- 55.459
5.03 --undefined-- 58.643
5.04 --undefined-- 59.383
5.05 --undefined-- 59.272
5.06 --undefined-- 59.399
5.07 --undefined-- 58.693
5.08 --undefined-- 56.266
5.09 --undefined-- 52.572
5.10 --undefined-- 50.319
5.11 --undefined-- 52.068
5.12 --undefined-- 53.700
5.13 --undefined-- 54.664
5.14 --undefined-- 56.483
5.15 --undefined-- 58.898
5.16 --undefined-- 60.382
5.17 --undefined-- 59.501
5.18 --undefined-- 56.765
5.19 --undefined-- 59.496
5.20 --undefined-- 63.647
5.21 --undefined-- 66.097
5.22 --undefined-- 67.564
5.23 --undefined-- 67.864
5.24 --undefined-- 67.024
5.25 --undefined-- 65.305
5.26 --undefined-- 63.533
5.27 --undefined-- 62.324
5.28 --undefined-- 60.752
5.29 --undefined-- 58.447
5.30 --undefined-- 55.826
5.31 --undefined-- 52.219
5.32 --undefined-- 46.579
5.33 --undefined-- 39.626
5.34 --undefined-- 36.315
5.35 --undefined-- 37.379
5.36 --undefined-- 52.008
5.37 --undefined-- 62.361
5.38 --undefined-- 67.154
5.39 --undefined-- 67.372
5.40 --undefined-- 63.213
5.41 --undefined-- 58.095
5.42 --undefined-- 62.011
5.43 --undefined-- 65.192
5.44 --undefined-- 66.677
5.45 --undefined-- 67.094
5.46 --undefined-- 66.648
5.47 --undefined-- 66.498
5.48 --undefined-- 66.365
5.49 --undefined-- 66.395
5.50 --undefined-- 66.847
5.51 --undefined-- 67.136
5.52 --undefined-- 66.508
5.53 --undefined-- 64.654
5.54 --undefined-- 61.194
5.55 --undefined-- 56.813
5.56 --undefined-- 52.996
5.57 --undefined-- 50.614
5.58 --undefined-- 49.289
5.59 --undefined-- 48.799
5.60 --undefined-- 50.003
5.61 --undefined-- 51.242
5.62 --undefined-- 51.126
5.63 --undefined-- --undefined--
5.64 --undefined-- --undefined--
5.65 --undefined-- --undefined--
5.66 --undefined-- --undefined--
