Time Pitch Intensity
0.01 --undefined-- --undefined--
0.02 --undefined-- --undefined--
0.03 --undefined-- --undefined--
0.04 --undefined-- --undefined--
0.05 --undefined-- 51.580
0.06 --undefined-- 49.573
0.07 --undefined-- 48.988
0.08 --undefined-- 50.420
0.09 --undefined-- 49.780
0.10 --undefined-- 46.021
0.11 --undefined-- 41.659
0.12 --undefined-- 40.386
0.13 --undefined-- 40.007
0.14 --undefined-- 40.085
0.15 --undefined-- 42.024
0.16 --undefined-- 44.700
0.17 --undefined-- 46.548
0.18 --undefined-- 50.068
0.19 --undefined-- 61.937
0.20 --undefined-- 70.906
0.21 252.009 75.429
0.22 243.364 76.385
0.23 237.365 74.304
0.24 229.629 69.425
0.25 --undefined-- 62.002
0.26 --undefined-- 52.501
0.27 --undefined-- 46.219
0.28 --undefined-- 46.433
0.29 --undefined-- 46.715
0.30 --undefined-- 46.135
0.31 --undefined-- 49.271
0.32 --undefined-- 55.902
0.33 --undefined-- 60.084
0.34 --undefined-- 63.632
0.35 248.620 67.670
0.36 244.510 70.278
0.37 241.976 71.106
0.38 238.446 70.518
0.39 233.585 69.292
0.40 228.592 68.977
0.41 222.070 69.609
0.42 221.804 70.367
0.43 220.812 70.847
0.44 219.757 71.136
0.45 220.670 71.409
0.46 221.972 71.498
0.47 223.810 71.693
0.48 224.153 72.219
0.49 223.714 72.685
0.50 222.155 72.843
0.51 221.450 72.887
0.52 220.624 72.960
0.53 220.007 72.946
0.54 219.528 72.746
0.55 219.002 72.397
0.56 219.084 71.870
0.57 219.473 71.128
0.58 219.845 70.095
0.59 219.399 68.549
0.60 216.834 66.214
0.61 214.090 63.132
0.62 214.873 59.946
0.63 217.202 56.928
0.64 217.037 53.446
0.65 --undefined-- 48.819
0.66 --undefined-- 44.813
0.67 --undefined-- 43.806
0.68 --undefined-- 42.775
0.69 --undefined-- 41.353
0.70 --undefined-- 40.924
0.71 --undefined-- 42.653
0.72 --undefined-- 46.454
0.73 --undefined-- 50.495
0.74 --undefined-- 53.516
0.75 --undefined-- 55.150
0.76 --undefined-- 55.495
0.77 --undefined-- 55.553
0.78 --undefined-- 59.233
0.79 197.791 64.009
0.80 187.252 66.337
0.81 184.864 66.302
0.82 182.943 64.569
0.83 180.751 63.454
0.84 204.394 67.105
0.85 204.277 70.873
0.86 203.024 72.637
0.87 201.512 72.876
0.88 200.171 72.614
0.89 197.986 72.246
0.90 195.512 71.205
0.91 194.798 69.217
0.92 195.780 66.770
0.93 200.614 64.964
0.94 207.013 63.853
0.95 204.685 63.249
0.96 198.488 64.513
0.97 180.541 67.671
0.98 168.671 70.201
0.99 156.426 71.229
1.00 145.618 71.249
1.01 137.206 70.410
1.02 132.306 67.940
1.03 128.956 62.986
1.04 --undefined-- 55.332
1.05 --undefined-- 47.931
1.06 --undefined-- 48.307
1.07 --undefined-- 51.701
1.08 --undefined-- 56.270
1.09 --undefined-- 58.847
1.10 --undefined-- 58.597
1.11 --undefined-- 60.373
1.12 --undefined-- 65.078
1.13 152.072 67.971
1.14 144.968 68.808
1.15 140.137 68.439
1.16 137.932 67.933
1.17 136.040 67.441
1.18 135.232 66.464
1.19 135.618 64.535
1.20 136.170 61.189
1.21 --undefined-- 56.292
1.22 --undefined-- 51.162
1.23 --undefined-- 47.603
1.24 --undefined-- 51.470
1.25 --undefined-- 60.740
1.26 --undefined-- 65.623
1.27 --undefined-- 66.845
1.28 --undefined-- 66.998
1.29 166.320 69.635
1.30 166.873 71.846
1.31 165.072 71.938
1.32 161.783 71.075
1.33 159.856 70.765
1.34 157.368 70.660
1.35 154.568 70.067
1.36 151.994 68.864
1.37 149.602 67.561
1.38 147.778 66.732
1.39 144.499 66.165
1.40 143.352 65.859
1.41 144.243 65.094
1.42 143.363 62.730
1.43 140.779 58.898
1.44 136.380 55.834
1.45 144.513 58.142
1.46 142.651 62.375
1.47 139.747 65.008
1.48 --undefined-- 66.137
1.49 --undefined-- 66.183
1.50 --undefined-- 65.156
1.51 --undefined-- 64.203
1.52 --undefined-- 64.653
1.53 --undefined-- 64.127
1.54 --undefined-- 60.066
1.55 --undefined-- 51.931
1.56 --undefined-- 45.914
1.57 --undefined-- 45.170
1.58 --undefined-- 44.311
1.59 --undefined-- 43.269
1.60 --undefined-- 42.207
1.61 --undefined-- 40.952
1.62 --undefined-- 40.130
1.63 --undefined-- 39.144
1.64 --undefined-- 38.281
1.65 --undefined-- 38.442
1.66 --undefined-- 38.686
1.67 --undefined-- 37.958
1.68 --undefined-- 37.090
1.69 --undefined-- 37.646
1.70 --undefined-- 39.129
1.71 --undefined-- 40.110
1.72 --undefined-- 40.179
1.73 --undefined-- 40.095
1.74 --undefined-- 40.004
1.75 --undefined-- 39.548
1.76 --undefined-- 39.819
1.77 --undefined-- 41.068
1.78 --undefined-- 41.245
1.79 --undefined-- 40.537
1.80 --undefined-- 40.732
1.81 --undefined-- 41.316
1.82 --undefined-- 41.456
1.83 --undefined-- 41.592
1.84 --undefined-- 41.917
1.85 --undefined-- 42.583
1.86 --undefined-- 43.858
1.87 --undefined-- 44.424
1.88 --undefined-- 43.553
1.89 --undefined-- 42.408
1.90 --undefined-- 41.932
1.91 --undefined-- 41.652
1.92 --undefined-- 42.065
1.93 --undefined-- 42.848
1.94 --undefined-- 42.663
1.95 --undefined-- 42.021
1.96 --undefined-- 41.388
1.97 --undefined-- 40.572
1.98 --undefined-- 40.982
1.99 --undefined-- 42.021
2.00 --undefined-- 42.183
2.01 --undefined-- 41.615
2.02 --undefined-- 40.665
2.03 --undefined-- 39.745
2.04 --undefined-- 39.311
2.05 --undefined-- 38.840
2.06 --undefined-- 38.251
2.07 --undefined-- 38.102
2.08 --undefined-- 38.105
2.09 --undefined-- 38.357
2.10 --undefined-- 38.530
2.11 --undefined-- 41.186
2.12 --undefined-- 50.776
2.13 --undefined-- 56.934
2.14 --undefined-- 60.572
2.15 --undefined-- 66.224
2.16 225.789 71.169
2.17 227.669 73.884
2.18 232.539 74.668
2.19 239.182 73.565
2.20 254.839 71.416
2.21 266.620 70.040
2.22 285.028 68.946
2.23 161.859 68.348
2.24 172.297 69.963
2.25 184.109 72.033
2.26 188.379 72.749
2.27 183.670 71.406
2.28 173.001 67.562
2.29 --undefined-- 61.012
2.30 --undefined-- 56.790
2.31 --undefined-- 62.526
2.32 --undefined-- 65.264
2.33 --undefined-- 64.105
2.34 --undefined-- 60.822
2.35 --undefined-- 63.080
2.36 237.406 68.364
2.37 235.147 71.843
2.38 228.644 73.677
2.39 216.801 74.233
2.40 148.311 73.763
2.41 147.497 72.704
2.42 147.798 71.564
2.43 147.481 70.387
2.44 147.693 68.056
2.45 150.961 63.449
2.46 148.481 57.592
2.47 --undefined-- 58.560
2.48 --undefined-- 62.901
2.49 --undefined-- 67.447
2.50 207.171 71.110
2.51 209.538 72.884
2.52 217.528 73.138
2.53 231.044 72.788
2.54 252.156 72.803
2.55 260.731 73.198
2.56 261.917 73.181
2.57 261.152 72.485
2.58 261.432 71.445
2.59 260.514 70.553
2.60 257.775 69.821
2.61 255.371 68.907
2.62 252.654 67.610
2.63 250.274 66.494
2.64 249.417 65.947
2.65 250.903 65.060
2.66 251.545 63.195
2.67 253.567 59.994
2.68 --undefined-- 55.412
2.69 --undefined-- 51.878
2.70 --undefined-- 50.360
2.71 --undefined-- 49.096
2.72 --undefined-- 48.350
2.73 --undefined-- 47.665
2.74 --undefined-- 49.726
2.75 --undefined-- 59.763
2.76 --undefined-- 67.352
2.77 290.104 71.349
2.78 280.560 72.580
2.79 267.633 72.158
2.80 253.213 71.504
2.81 246.516 71.189
2.82 242.220 70.868
2.83 239.696 70.436
2.84 238.601 70.007
2.85 237.503 69.594
2.86 235.616 69.035
2.87 233.111 67.948
2.88 231.929 66.222
2.89 231.393 64.535
2.90 230.957 62.343
2.91 233.315 58.342
2.92 218.571 56.966
2.93 214.374 61.649
2.94 210.710 65.174
2.95 206.678 66.501
2.96 199.632 65.938
2.97 192.153 64.038
2.98 183.544 60.869
2.99 --undefined-- 56.475
3.00 --undefined-- 52.827
3.01 --undefined-- 50.815
3.02 --undefined-- 49.292
3.03 --undefined-- 48.309
3.04 --undefined-- 48.239
3.05 --undefined-- 52.602
3.06 --undefined-- 60.466
3.07 --undefined-- 65.847
3.08 --undefined-- 67.899
3.09 --undefined-- 67.116
3.10 --undefined-- 64.706
3.11 --undefined-- 62.244
3.12 100.123 59.006
3.13 101.128 55.981
3.14 --undefined-- 57.239
3.15 229.766 58.577
3.16 229.693 57.502
3.17 228.994 54.721
3.18 220.911 52.690
3.19 --undefined-- 51.352
3.20 --undefined-- 50.602
3.21 --undefined-- 50.961
3.22 --undefined-- 51.840
3.23 --undefined-- 52.138
3.24 --undefined-- 51.196
3.25 --undefined-- 49.936
3.26 --undefined-- 49.781
3.27 --undefined-- 50.430
3.28 --undefined-- 50.367
3.29 --undefined-- 51.351
3.30 --undefined-- 56.144
3.31 149.632 60.250
3.32 149.046 62.820
3.33 147.866 64.831
3.34 145.770 66.779
3.35 146.829 68.280
3.36 148.839 68.893
3.37 151.014 68.956
3.38 154.889 69.274
3.39 158.070 70.118
3.40 163.356 71.220
3.41 167.607 71.469
3.42 167.304 70.257
3.43 168.441 68.970
3.44 171.020 69.048
3.45 174.189 69.663
3.46 175.930 69.933
3.47 176.731 69.373
3.48 177.568 67.728
3.49 176.658 64.660
3.50 171.545 59.770
3.51 --undefined-- 53.432
3.52 --undefined-- 47.641
3.53 --undefined-- 44.097
3.54 --undefined-- 42.425
3.55 --undefined-- 41.825
3.56 --undefined-- 41.681
3.57 --undefined-- 41.151
3.58 --undefined-- 41.593
3.59 --undefined-- 42.993
3.60 --undefined-- 44.363
3.61 --undefined-- 45.380
3.62 --undefined-- 45.735
3.63 --undefined-- 45.724
3.64 --undefined-- 45.613
3.65 --undefined-- 45.590
3.66 --undefined-- 45.220
3.67 --undefined-- 44.844
3.68 --undefined-- 45.807
3.69 --undefined-- 46.352
3.70 --undefined-- 45.228
3.71 --undefined-- 44.294
3.72 --undefined-- 44.620
3.73 --undefined-- 45.211
3.74 --undefined-- 46.148
3.75 --undefined-- 46.388
3.76 --undefined-- 45.731
3.77 --undefined-- 45.488
3.78 --undefined-- 45.916
3.79 --undefined-- 45.463
3.80 --undefined-- 43.892
3.81 --undefined-- 42.753
3.82 --undefined-- 42.563
3.83 --undefined-- 42.136
3.84 --undefined-- 41.048
3.85 --undefined-- 40.210
3.86 --undefined-- 40.684
3.87 --undefined-- 40.927
3.88 --undefined-- 41.272
3.89 --undefined-- 42.568
3.90 --undefined-- 42.727
3.91 --undefined-- 41.509
3.92 --undefined-- 42.474
3.93 --undefined-- 51.744
3.94 --undefined-- 60.287
3.95 --undefined-- 66.584
3.96 --undefined-- 70.530
3.97 210.843 71.965
3.98 207.798 71.275
3.99 207.062 68.953
4.00 221.774 66.052
4.01 222.940 64.510
4.02 223.005 64.295
4.03 227.773 64.897
4.04 232.105 66.051
4.05 241.909 67.956
4.06 239.545 70.145
4.07 229.068 71.938
4.08 220.807 73.079
4.09 215.907 73.643
4.10 212.804 73.896
4.11 211.034 73.675
4.12 209.214 72.701
4.13 202.256 71.382
4.14 190.847 70.163
4.15 177.010 68.960
4.16 163.120 67.546
4.17 150.678 65.283
4.18 145.966 60.914
4.19 --undefined-- 54.586
4.20 --undefined-- 51.686
4.21 --undefined-- 54.010
4.22 --undefined-- 59.626
4.23 --undefined-- 63.374
4.24 --undefined-- 63.506
4.25 --undefined-- 61.638
4.26 --undefined-- 62.598
4.27 --undefined-- 64.679
4.28 --undefined-- 66.216
4.29 --undefined-- 68.963
4.30 --undefined-- 71.390
4.31 165.059 71.626
4.32 165.152 70.224
4.33 170.722 68.962
4.34 175.622 67.721
4.35 187.785 66.476
4.36 198.328 66.853
4.37 202.547 67.733
4.38 204.104 67.991
4.39 202.997 67.699
4.40 200.359 67.100
4.41 194.824 66.381
4.42 187.735 65.689
4.43 180.507 64.432
4.44 167.472 62.290
4.45 156.807 60.572
4.46 146.432 60.117
4.47 140.882 59.480
4.48 134.089 57.905
4.49 130.099 55.514
4.50 124.013 52.812
4.51 --undefined-- 51.305
4.52 --undefined-- 52.092
4.53 --undefined-- 53.829
4.54 --undefined-- 54.868
4.55 --undefined-- 54.741
4.56 --undefined-- 54.967
4.57 --undefined-- 55.788
4.58 --undefined-- 56.634
4.59 --undefined-- 58.155
4.60 --undefined-- 63.498
4.61 218.914 68.645
4.62 212.061 70.993
4.63 202.663 70.878
4.64 --undefined-- 69.354
4.65 106.921 68.156
4.66 104.728 67.067
4.67 98.840 65.015
4.68 97.509 62.201
4.69 --undefined-- 58.992
4.70 --undefined-- 55.108
4.71 --undefined-- 56.298
4.72 --undefined-- 60.581
4.73 --undefined-- 62.449
4.74 81.327 62.898
4.75 81.073 62.691
4.76 83.456 63.199
4.77 --undefined-- 63.913
4.78 --undefined-- 62.907
4.79 --undefined-- 62.770
4.80 --undefined-- 62.177
4.81 --undefined-- 59.089
4.82 --undefined-- 59.521
4.83 --undefined-- 63.015
4.84 --undefined-- 65.502
4.85 --undefined-- 67.501
4.86 --undefined-- 68.563
4.87 --undefined-- 67.298
4.88 --undefined-- 63.907
4.89 164.567 63.163
4.90 163.765 64.605
4.91 162.178 65.480
4.92 158.903 66.002
4.93 152.867 65.458
4.94 147.538 62.860
4.95 --undefined-- 57.501
4.96 --undefined-- 50.050
4.97 --undefined-- 46.910
4.98 --undefined-- 47.980
4.99 --undefined-- 49.932
5.00 --undefined-- 53.675
5.01 --undefined-- 58.640
5.02 138.817 61.734
5.03 138.157 62.684
5.04 147.730 62.569
5.05 155.141 62.431
5.06 160.100 62.788
5.07 161.672 62.699
5.08 160.864 61.199
5.09 --undefined-- 61.769
5.10 131.745 65.657
5.11 127.717 68.055
5.12 126.188 68.766
5.13 125.734 67.948
5.14 125.931 65.525
5.15 130.646 62.143
5.16 --undefined-- 60.087
5.17 --undefined-- 62.594
5.18 --undefined-- 66.355
5.19 --undefined-- 68.670
5.20 124.161 69.557
5.21 121.723 69.419
5.22 120.441 68.806
5.23 118.698 68.269
5.24 --undefined-- 67.782
5.25 --undefined-- 65.571
5.26 122.120 61.444
5.27 123.122 60.115
5.28 124.636 60.831
5.29 --undefined-- 60.728
5.30 --undefined-- 59.717
5.31 --undefined-- 57.561
5.32 --undefined-- 54.055
5.33 --undefined-- 48.529
5.34 --undefined-- 43.464
5.35 --undefined-- 41.889
5.36 --undefined-- 41.149
5.37 --undefined-- 39.976
5.38 --undefined-- 39.520
5.39 --undefined-- 39.611
5.40 --undefined-- 39.697
5.41 --undefined-- 39.585
5.42 --undefined-- 38.852
5.43 --undefined-- 38.342
5.44 --undefined-- 38.693
5.45 --undefined-- 38.974
5.46 --undefined-- 38.471
5.47 --undefined-- 37.984
5.48 --undefined-- 37.928
5.49 --undefined-- 37.928
5.50 --undefined-- 37.794
5.51 --undefined-- 37.827
5.52 --undefined-- 38.323
5.53 --undefined-- 39.388
5.54 --undefined-- 39.577
5.55 --undefined-- 38.814
5.56 --undefined-- 38.809
5.57 --undefined-- 39.930
5.58 --undefined-- 40.948
5.59 --undefined-- 41.361
5.60 --undefined-- 48.291
5.61 --undefined-- 57.938
5.62 --undefined-- 62.917
5.63 --undefined-- 64.137
5.64 --undefined-- 62.773
5.65 --undefined-- 59.964
5.66 --undefined-- 58.471
5.67 190.667 61.776
5.68 187.872 66.951
5.69 182.199 70.606
5.70 179.167 72.098
5.71 180.665 72.342
5.72 184.113 72.496
5.73 189.537 71.756
5.74 198.637 68.689
5.75 192.324 62.773
5.76 182.526 56.063
5.77 --undefined-- 58.861
5.78 --undefined-- 64.036
5.79 --undefined-- 67.418
5.80 218.439 71.361
5.81 221.316 74.199
5.82 218.605 74.755
5.83 212.351 73.641
5.84 208.873 72.364
5.85 207.833 72.103
5.86 206.968 72.332
5.87 205.573 71.862
5.88 209.781 70.442
5.89 216.793 69.160
5.90 222.495 68.281
5.91 226.236 66.638
5.92 220.356 63.671
5.93 214.961 --undefined--
5.94 --undefined-- --undefined--
5.95 --undefined-- --undefined--
5.96 --undefined-- --undefined--
